LabVIEW Measurement	
Writer_Version	2
Reader_Version	2
Separator	Tab
Decimal_Separator	.
Multi_Headings	Yes
X_Columns	One
Time_Pref	Absolute
Operator	W-Tunnel
Date	2024/05/22
Time	17:56:40.4353401562498981604
***End_of_Header***	
	
Channels	1	
Samples	10000	
Date	2024/05/23	
Time	15:00:21.8675465812496117213	
Y_Unit_Label	Volts	
X_Dimension	Time	
X0	0.0000000000000000E+0	
Delta_X	0.000488	
***End_of_Header***		
X_Value	Voltage	Comment
0.000000	1.604412
0.000488	1.604149
0.000977	1.604553
0.001465	1.604498
0.001953	1.604415
0.002441	1.604263
0.002930	1.604332
0.003418	1.604620
0.003906	1.604649
0.004395	1.604686
0.004883	1.604536
0.005371	1.604393
0.005859	1.604526
0.006348	1.604489
0.006836	1.604533
0.007324	1.604487
0.007812	1.604697
0.008301	1.604606
0.008789	1.604105
0.009277	1.604235
0.009766	1.604407
0.010254	1.604326
0.010742	1.604202
0.011230	1.604473
0.011719	1.604324
0.012207	1.604271
0.012695	1.604256
0.013184	1.604041
0.013672	1.604225
0.014160	1.604472
0.014648	1.604357
0.015137	1.604065
0.015625	1.604315
0.016113	1.604622
0.016602	1.604537
0.017090	1.604407
0.017578	1.604414
0.018066	1.604597
0.018555	1.604494
0.019043	1.604366
0.019531	1.604669
0.020020	1.604637
0.020508	1.604472
0.020996	1.604458
0.021484	1.604520
0.021973	1.604436
0.022461	1.604589
0.022949	1.604567
0.023437	1.604543
0.023926	1.604572
0.024414	1.604522
0.024902	1.604528
0.025391	1.604599
0.025879	1.604499
0.026367	1.604198
0.026855	1.604723
0.027344	1.604573
0.027832	1.604581
0.028320	1.604627
0.028809	1.604689
0.029297	1.604648
0.029785	1.604436
0.030273	1.604432
0.030762	1.604375
0.031250	1.604634
0.031738	1.604747
0.032227	1.604567
0.032715	1.604632
0.033203	1.604463
0.033691	1.604611
0.034180	1.604268
0.034668	1.604440
0.035156	1.604656
0.035645	1.604564
0.036133	1.604454
0.036621	1.604492
0.037109	1.604559
0.037598	1.604632
0.038086	1.604624
0.038574	1.604465
0.039062	1.604365
0.039551	1.604654
0.040039	1.604746
0.040527	1.604458
0.041016	1.604508
0.041504	1.604589
0.041992	1.604575
0.042480	1.604724
0.042969	1.604401
0.043457	1.604500
0.043945	1.604345
0.044434	1.604403
0.044922	1.604512
0.045410	1.604342
0.045898	1.604430
0.046387	1.604238
0.046875	1.604479
0.047363	1.604628
0.047852	1.604564
0.048340	1.604597
0.048828	1.604411
0.049316	1.604585
0.049805	1.604304
0.050293	1.604264
0.050781	1.604752
0.051270	1.604692
0.051758	1.604505
0.052246	1.604268
0.052734	1.603927
0.053223	1.604467
0.053711	1.604416
0.054199	1.604299
0.054687	1.604249
0.055176	1.604632
0.055664	1.604407
0.056152	1.604398
0.056641	1.604394
0.057129	1.604498
0.057617	1.604569
0.058105	1.604512
0.058594	1.604397
0.059082	1.604470
0.059570	1.604468
0.060059	1.604616
0.060547	1.604722
0.061035	1.604843
0.061523	1.604467
0.062012	1.604644
0.062500	1.604591
0.062988	1.604702
0.063477	1.604853
0.063965	1.604760
0.064453	1.604882
0.064941	1.604696
0.065430	1.604744
0.065918	1.604909
0.066406	1.604776
0.066895	1.604729
0.067383	1.604677
0.067871	1.605054
0.068359	1.604890
0.068848	1.604749
0.069336	1.604832
0.069824	1.604879
0.070312	1.604824
0.070801	1.604395
0.071289	1.604580
0.071777	1.604818
0.072266	1.604959
0.072754	1.605083
0.073242	1.605024
0.073730	1.605034
0.074219	1.605015
0.074707	1.605110
0.075195	1.604643
0.075684	1.604912
0.076172	1.605341
0.076660	1.605035
0.077148	1.604721
0.077637	1.604919
0.078125	1.604910
0.078613	1.605084
0.079102	1.604932
0.079590	1.604837
0.080078	1.604680
0.080566	1.604789
0.081055	1.604843
0.081543	1.605015
0.082031	1.605090
0.082520	1.604848
0.083008	1.604912
0.083496	1.604720
0.083984	1.604797
0.084473	1.604867
0.084961	1.604772
0.085449	1.604644
0.085937	1.604793
0.086426	1.604990
0.086914	1.604841
0.087402	1.604839
0.087891	1.604847
0.088379	1.604882
0.088867	1.605001
0.089355	1.604903
0.089844	1.605004
0.090332	1.604761
0.090820	1.604583
0.091309	1.604804
0.091797	1.605199
0.092285	1.604788
0.092773	1.604848
0.093262	1.604718
0.093750	1.604700
0.094238	1.604858
0.094727	1.604866
0.095215	1.604535
0.095703	1.604623
0.096191	1.604928
0.096680	1.604747
0.097168	1.604891
0.097656	1.604805
0.098145	1.605059
0.098633	1.604819
0.099121	1.604594
0.099609	1.604563
0.100098	1.604791
0.100586	1.604699
0.101074	1.604804
0.101562	1.604933
0.102051	1.604608
0.102539	1.604634
0.103027	1.604665
0.103516	1.604693
0.104004	1.604763
0.104492	1.604752
0.104980	1.604719
0.105469	1.604695
0.105957	1.604777
0.106445	1.604842
0.106934	1.604933
0.107422	1.604949
0.107910	1.604919
0.108398	1.604879
0.108887	1.604879
0.109375	1.604980
0.109863	1.604944
0.110352	1.604869
0.110840	1.604832
0.111328	1.604948
0.111816	1.604988
0.112305	1.604773
0.112793	1.604904
0.113281	1.604775
0.113770	1.604930
0.114258	1.604630
0.114746	1.604691
0.115234	1.604700
0.115723	1.604645
0.116211	1.604692
0.116699	1.604896
0.117187	1.604974
0.117676	1.604924
0.118164	1.604896
0.118652	1.604875
0.119141	1.604970
0.119629	1.604950
0.120117	1.605024
0.120605	1.604757
0.121094	1.604783
0.121582	1.604821
0.122070	1.604706
0.122559	1.605034
0.123047	1.605109
0.123535	1.605134
0.124023	1.604966
0.124512	1.604564
0.125000	1.604840
0.125488	1.604763
0.125977	1.605012
0.126465	1.605192
0.126953	1.605001
0.127441	1.604988
0.127930	1.604898
0.128418	1.604921
0.128906	1.604861
0.129395	1.604902
0.129883	1.605145
0.130371	1.604961
0.130859	1.604882
0.131348	1.604926
0.131836	1.604927
0.132324	1.604853
0.132812	1.605040
0.133301	1.604751
0.133789	1.604649
0.134277	1.604982
0.134766	1.604744
0.135254	1.604594
0.135742	1.604784
0.136230	1.604742
0.136719	1.604732
0.137207	1.605020
0.137695	1.604796
0.138184	1.604672
0.138672	1.604592
0.139160	1.604428
0.139648	1.604866
0.140137	1.604924
0.140625	1.604454
0.141113	1.604547
0.141602	1.604705
0.142090	1.604785
0.142578	1.604681
0.143066	1.604716
0.143555	1.604524
0.144043	1.604478
0.144531	1.604847
0.145020	1.604484
0.145508	1.604431
0.145996	1.604436
0.146484	1.604620
0.146973	1.604580
0.147461	1.604420
0.147949	1.604187
0.148437	1.604307
0.148926	1.604681
0.149414	1.604652
0.149902	1.604720
0.150391	1.604506
0.150879	1.604451
0.151367	1.604631
0.151855	1.604483
0.152344	1.604655
0.152832	1.604798
0.153320	1.604863
0.153809	1.604738
0.154297	1.604507
0.154785	1.604506
0.155273	1.604538
0.155762	1.604709
0.156250	1.604752
0.156738	1.604770
0.157227	1.604927
0.157715	1.604747
0.158203	1.604858
0.158691	1.604863
0.159180	1.604750
0.159668	1.604887
0.160156	1.604869
0.160645	1.604769
0.161133	1.604732
0.161621	1.604929
0.162109	1.604595
0.162598	1.604898
0.163086	1.604962
0.163574	1.604800
0.164062	1.604822
0.164551	1.604880
0.165039	1.604951
0.165527	1.604769
0.166016	1.604934
0.166504	1.604729
0.166992	1.605244
0.167480	1.605009
0.167969	1.604783
0.168457	1.604888
0.168945	1.604753
0.169434	1.604933
0.169922	1.605411
0.170410	1.605075
0.170898	1.604658
0.171387	1.605011
0.171875	1.605152
0.172363	1.605134
0.172852	1.605125
0.173340	1.605187
0.173828	1.604932
0.174316	1.605185
0.174805	1.604948
0.175293	1.605036
0.175781	1.605135
0.176270	1.605276
0.176758	1.605441
0.177246	1.605042
0.177734	1.604965
0.178223	1.605028
0.178711	1.605060
0.179199	1.605375
0.179687	1.605126
0.180176	1.605073
0.180664	1.604918
0.181152	1.605052
0.181641	1.604847
0.182129	1.604864
0.182617	1.605349
0.183105	1.605193
0.183594	1.605112
0.184082	1.605181
0.184570	1.604621
0.185059	1.604954
0.185547	1.605163
0.186035	1.605067
0.186523	1.605056
0.187012	1.605245
0.187500	1.605092
0.187988	1.604980
0.188477	1.605225
0.188965	1.605141
0.189453	1.605096
0.189941	1.605318
0.190430	1.605145
0.190918	1.605290
0.191406	1.605107
0.191895	1.605056
0.192383	1.605042
0.192871	1.605066
0.193359	1.605184
0.193848	1.605086
0.194336	1.605048
0.194824	1.604985
0.195312	1.605190
0.195801	1.605094
0.196289	1.605070
0.196777	1.605113
0.197266	1.604945
0.197754	1.604816
0.198242	1.605111
0.198730	1.604845
0.199219	1.604764
0.199707	1.604955
0.200195	1.604892
0.200684	1.604598
0.201172	1.604700
0.201660	1.604859
0.202148	1.604844
0.202637	1.604865
0.203125	1.604964
0.203613	1.604747
0.204102	1.604763
0.204590	1.604559
0.205078	1.604778
0.205566	1.605070
0.206055	1.605005
0.206543	1.605027
0.207031	1.604691
0.207520	1.604407
0.208008	1.604924
0.208496	1.604845
0.208984	1.604847
0.209473	1.604684
0.209961	1.604830
0.210449	1.604646
0.210937	1.604820
0.211426	1.604785
0.211914	1.604696
0.212402	1.604919
0.212891	1.604991
0.213379	1.604974
0.213867	1.604927
0.214355	1.605092
0.214844	1.604841
0.215332	1.604850
0.215820	1.605029
0.216309	1.604826
0.216797	1.604741
0.217285	1.604887
0.217773	1.604702
0.218262	1.604553
0.218750	1.604813
0.219238	1.604727
0.219727	1.604879
0.220215	1.604849
0.220703	1.604649
0.221191	1.604951
0.221680	1.604482
0.222168	1.604536
0.222656	1.604808
0.223145	1.604982
0.223633	1.604769
0.224121	1.604591
0.224609	1.604447
0.225098	1.604844
0.225586	1.604763
0.226074	1.604608
0.226562	1.604389
0.227051	1.604774
0.227539	1.604775
0.228027	1.604772
0.228516	1.604848
0.229004	1.604553
0.229492	1.604556
0.229980	1.604936
0.230469	1.604780
0.230957	1.604732
0.231445	1.604592
0.231934	1.604586
0.232422	1.604779
0.232910	1.604697
0.233398	1.604860
0.233887	1.604740
0.234375	1.604652
0.234863	1.604806
0.235352	1.604788
0.235840	1.604888
0.236328	1.604602
0.236816	1.604600
0.237305	1.605005
0.237793	1.604717
0.238281	1.604979
0.238770	1.604664
0.239258	1.604617
0.239746	1.604687
0.240234	1.604818
0.240723	1.604602
0.241211	1.604580
0.241699	1.604606
0.242187	1.604742
0.242676	1.604924
0.243164	1.604786
0.243652	1.604876
0.244141	1.604768
0.244629	1.604872
0.245117	1.604874
0.245605	1.604896
0.246094	1.604898
0.246582	1.604882
0.247070	1.604912
0.247559	1.604805
0.248047	1.604929
0.248535	1.604979
0.249023	1.604939
0.249512	1.604866
0.250000	1.604470
0.250488	1.604373
0.250977	1.604789
0.251465	1.604719
0.251953	1.604556
0.252441	1.604555
0.252930	1.604779
0.253418	1.604407
0.253906	1.604588
0.254395	1.604644
0.254883	1.604675
0.255371	1.604617
0.255859	1.604871
0.256348	1.604666
0.256836	1.604758
0.257324	1.604639
0.257812	1.604806
0.258301	1.604861
0.258789	1.604686
0.259277	1.604641
0.259766	1.604506
0.260254	1.604559
0.260742	1.604724
0.261230	1.604744
0.261719	1.604688
0.262207	1.604545
0.262695	1.604764
0.263184	1.604672
0.263672	1.604866
0.264160	1.604661
0.264648	1.604660
0.265137	1.604617
0.265625	1.604354
0.266113	1.604542
0.266602	1.604741
0.267090	1.604710
0.267578	1.604680
0.268066	1.604656
0.268555	1.604786
0.269043	1.604683
0.269531	1.604821
0.270020	1.604304
0.270508	1.604431
0.270996	1.604872
0.271484	1.604950
0.271973	1.604560
0.272461	1.604696
0.272949	1.604493
0.273437	1.604843
0.273926	1.604795
0.274414	1.604738
0.274902	1.604694
0.275391	1.604741
0.275879	1.604823
0.276367	1.604614
0.276855	1.604788
0.277344	1.604810
0.277832	1.604759
0.278320	1.604963
0.278809	1.604708
0.279297	1.604780
0.279785	1.604810
0.280273	1.604746
0.280762	1.604919
0.281250	1.604675
0.281738	1.604708
0.282227	1.604741
0.282715	1.605026
0.283203	1.604933
0.283691	1.604780
0.284180	1.604759
0.284668	1.604650
0.285156	1.604886
0.285645	1.604731
0.286133	1.604926
0.286621	1.605238
0.287109	1.605168
0.287598	1.605022
0.288086	1.604901
0.288574	1.604633
0.289062	1.605109
0.289551	1.605060
0.290039	1.605004
0.290527	1.604789
0.291016	1.605126
0.291504	1.604909
0.291992	1.604890
0.292480	1.604948
0.292969	1.605031
0.293457	1.604841
0.293945	1.604908
0.294434	1.604963
0.294922	1.605078
0.295410	1.604807
0.295898	1.604769
0.296387	1.604955
0.296875	1.605076
0.297363	1.605000
0.297852	1.604825
0.298340	1.604713
0.298828	1.604783
0.299316	1.605023
0.299805	1.604727
0.300293	1.604584
0.300781	1.605090
0.301270	1.605052
0.301758	1.604822
0.302246	1.604961
0.302734	1.604728
0.303223	1.604873
0.303711	1.604869
0.304199	1.604846
0.304687	1.604823
0.305176	1.604804
0.305664	1.604739
0.306152	1.605083
0.306641	1.604944
0.307129	1.604893
0.307617	1.604762
0.308105	1.604828
0.308594	1.604963
0.309082	1.604929
0.309570	1.605041
0.310059	1.604625
0.310547	1.604586
0.311035	1.604917
0.311523	1.604730
0.312012	1.604739
0.312500	1.604752
0.312988	1.604943
0.313477	1.604733
0.313965	1.604610
0.314453	1.604445
0.314941	1.604562
0.315430	1.604858
0.315918	1.604856
0.316406	1.604688
0.316895	1.604717
0.317383	1.604554
0.317871	1.604669
0.318359	1.604605
0.318848	1.604608
0.319336	1.604666
0.319824	1.604553
0.320312	1.604682
0.320801	1.604469
0.321289	1.604462
0.321777	1.604619
0.322266	1.604395
0.322754	1.604425
0.323242	1.604562
0.323730	1.604643
0.324219	1.604457
0.324707	1.604766
0.325195	1.604686
0.325684	1.604642
0.326172	1.604668
0.326660	1.604679
0.327148	1.604713
0.327637	1.604649
0.328125	1.604579
0.328613	1.604525
0.329102	1.604545
0.329590	1.604599
0.330078	1.604712
0.330566	1.604412
0.331055	1.604244
0.331543	1.604476
0.332031	1.604447
0.332520	1.604442
0.333008	1.604472
0.333496	1.604356
0.333984	1.604398
0.334473	1.604329
0.334961	1.604475
0.335449	1.604497
0.335937	1.604346
0.336426	1.604490
0.336914	1.604568
0.337402	1.604458
0.337891	1.604398
0.338379	1.604739
0.338867	1.604817
0.339355	1.604504
0.339844	1.604564
0.340332	1.604284
0.340820	1.604482
0.341309	1.604613
0.341797	1.604409
0.342285	1.604433
0.342773	1.604379
0.343262	1.604480
0.343750	1.604384
0.344238	1.604510
0.344727	1.604223
0.345215	1.604360
0.345703	1.604595
0.346191	1.604481
0.346680	1.604635
0.347168	1.604357
0.347656	1.604438
0.348145	1.604528
0.348633	1.604607
0.349121	1.604279
0.349609	1.604268
0.350098	1.604436
0.350586	1.604436
0.351074	1.604330
0.351562	1.604375
0.352051	1.604335
0.352539	1.604271
0.353027	1.604309
0.353516	1.604432
0.354004	1.604362
0.354492	1.604252
0.354980	1.604265
0.355469	1.604379
0.355957	1.604408
0.356445	1.604382
0.356934	1.604669
0.357422	1.604268
0.357910	1.604129
0.358398	1.604554
0.358887	1.604473
0.359375	1.604381
0.359863	1.604379
0.360352	1.604292
0.360840	1.604409
0.361328	1.604455
0.361816	1.604321
0.362305	1.604384
0.362793	1.604242
0.363281	1.604413
0.363770	1.604204
0.364258	1.604191
0.364746	1.604417
0.365234	1.604328
0.365723	1.604193
0.366211	1.604170
0.366699	1.604353
0.367187	1.604255
0.367676	1.604464
0.368164	1.604411
0.368652	1.604304
0.369141	1.604351
0.369629	1.604186
0.370117	1.604478
0.370605	1.604443
0.371094	1.604680
0.371582	1.604440
0.372070	1.604164
0.372559	1.604407
0.373047	1.604345
0.373535	1.604625
0.374023	1.604800
0.374512	1.604666
0.375000	1.604647
0.375488	1.604543
0.375977	1.604530
0.376465	1.604557
0.376953	1.604748
0.377441	1.604926
0.377930	1.604732
0.378418	1.604396
0.378906	1.604757
0.379395	1.604982
0.379883	1.604922
0.380371	1.604822
0.380859	1.604451
0.381348	1.604749
0.381836	1.604603
0.382324	1.604542
0.382812	1.604866
0.383301	1.604841
0.383789	1.604996
0.384277	1.604768
0.384766	1.604749
0.385254	1.604768
0.385742	1.604830
0.386230	1.604670
0.386719	1.604711
0.387207	1.604957
0.387695	1.604876
0.388184	1.604779
0.388672	1.604820
0.389160	1.604720
0.389648	1.604875
0.390137	1.604755
0.390625	1.604796
0.391113	1.604871
0.391602	1.604797
0.392090	1.604669
0.392578	1.604800
0.393066	1.604732
0.393555	1.604907
0.394043	1.605153
0.394531	1.604673
0.395020	1.604653
0.395508	1.604640
0.395996	1.604681
0.396484	1.604943
0.396973	1.604995
0.397461	1.604868
0.397949	1.604781
0.398437	1.604463
0.398926	1.604758
0.399414	1.604904
0.399902	1.604743
0.400391	1.604591
0.400879	1.604845
0.401367	1.604757
0.401855	1.604553
0.402344	1.604693
0.402832	1.604649
0.403320	1.604652
0.403809	1.604817
0.404297	1.604601
0.404785	1.604633
0.405273	1.604686
0.405762	1.604702
0.406250	1.604872
0.406738	1.604629
0.407227	1.604501
0.407715	1.604505
0.408203	1.604974
0.408691	1.604846
0.409180	1.604723
0.409668	1.604708
0.410156	1.604636
0.410645	1.604703
0.411133	1.604497
0.411621	1.604688
0.412109	1.604760
0.412598	1.604717
0.413086	1.604451
0.413574	1.604566
0.414062	1.604592
0.414551	1.604670
0.415039	1.604799
0.415527	1.604659
0.416016	1.604633
0.416504	1.604210
0.416992	1.604572
0.417480	1.604792
0.417969	1.604591
0.418457	1.604307
0.418945	1.604472
0.419434	1.604628
0.419922	1.604546
0.420410	1.604449
0.420898	1.604527
0.421387	1.604548
0.421875	1.604657
0.422363	1.604562
0.422852	1.604539
0.423340	1.604683
0.423828	1.604645
0.424316	1.604588
0.424805	1.604339
0.425293	1.604502
0.425781	1.604566
0.426270	1.604674
0.426758	1.604524
0.427246	1.604613
0.427734	1.604606
0.428223	1.604725
0.428711	1.604823
0.429199	1.604595
0.429687	1.604637
0.430176	1.604470
0.430664	1.604437
0.431152	1.604500
0.431641	1.604625
0.432129	1.604653
0.432617	1.604544
0.433105	1.604644
0.433594	1.604690
0.434082	1.604684
0.434570	1.604528
0.435059	1.604546
0.435547	1.604798
0.436035	1.604895
0.436523	1.604760
0.437012	1.604660
0.437500	1.604629
0.437988	1.604769
0.438477	1.604970
0.438965	1.604794
0.439453	1.604585
0.439941	1.604619
0.440430	1.604516
0.440918	1.604677
0.441406	1.604670
0.441895	1.604549
0.442383	1.604265
0.442871	1.604832
0.443359	1.604684
0.443848	1.604635
0.444336	1.604546
0.444824	1.604621
0.445312	1.604707
0.445801	1.604506
0.446289	1.604262
0.446777	1.604500
0.447266	1.604688
0.447754	1.604741
0.448242	1.604614
0.448730	1.604570
0.449219	1.604574
0.449707	1.604589
0.450195	1.604520
0.450684	1.604539
0.451172	1.604900
0.451660	1.604670
0.452148	1.604578
0.452637	1.604641
0.453125	1.604409
0.453613	1.604567
0.454102	1.604655
0.454590	1.604648
0.455078	1.604677
0.455566	1.604559
0.456055	1.604629
0.456543	1.604683
0.457031	1.604810
0.457520	1.604406
0.458008	1.604468
0.458496	1.604670
0.458984	1.604464
0.459473	1.604799
0.459961	1.604676
0.460449	1.604524
0.460937	1.604418
0.461426	1.604146
0.461914	1.604501
0.462402	1.604552
0.462891	1.604329
0.463379	1.604447
0.463867	1.604293
0.464355	1.604377
0.464844	1.604897
0.465332	1.604649
0.465820	1.604626
0.466309	1.604451
0.466797	1.604313
0.467285	1.604565
0.467773	1.604584
0.468262	1.604509
0.468750	1.604414
0.469238	1.604638
0.469727	1.604600
0.470215	1.604310
0.470703	1.604581
0.471191	1.604448
0.471680	1.604468
0.472168	1.604771
0.472656	1.604500
0.473145	1.604642
0.473633	1.604531
0.474121	1.604549
0.474609	1.604666
0.475098	1.604505
0.475586	1.604463
0.476074	1.604467
0.476562	1.604821
0.477051	1.604684
0.477539	1.604708
0.478027	1.604701
0.478516	1.604725
0.479004	1.604624
0.479492	1.604575
0.479980	1.604779
0.480469	1.604747
0.480957	1.604755
0.481445	1.604540
0.481934	1.604861
0.482422	1.604903
0.482910	1.604962
0.483398	1.604880
0.483887	1.604833
0.484375	1.604848
0.484863	1.604813
0.485352	1.604944
0.485840	1.605034
0.486328	1.605191
0.486816	1.605099
0.487305	1.605082
0.487793	1.605012
0.488281	1.605242
0.488770	1.605162
0.489258	1.605188
0.489746	1.605106
0.490234	1.604897
0.490723	1.605097
0.491211	1.605194
0.491699	1.605226
0.492187	1.604967
0.492676	1.605167
0.493164	1.605119
0.493652	1.604930
0.494141	1.605233
0.494629	1.605038
0.495117	1.605146
0.495605	1.605073
0.496094	1.605104
0.496582	1.605314
0.497070	1.605201
0.497559	1.604931
0.498047	1.605110
0.498535	1.605286
0.499023	1.605141
0.499512	1.605333
0.500000	1.605081
0.500488	1.604857
0.500977	1.605029
0.501465	1.605114
0.501953	1.605068
0.502441	1.605035
0.502930	1.604828
0.503418	1.604899
0.503906	1.605196
0.504395	1.605199
0.504883	1.605110
0.505371	1.605034
0.505859	1.605056
0.506348	1.605072
0.506836	1.604907
0.507324	1.604844
0.507812	1.604912
0.508301	1.605042
0.508789	1.604886
0.509277	1.604957
0.509766	1.605005
0.510254	1.604789
0.510742	1.604931
0.511230	1.604849
0.511719	1.604849
0.512207	1.604893
0.512695	1.604839
0.513184	1.604968
0.513672	1.604706
0.514160	1.604596
0.514648	1.604784
0.515137	1.605288
0.515625	1.604741
0.516113	1.604752
0.516602	1.605037
0.517090	1.605114
0.517578	1.604852
0.518066	1.604977
0.518555	1.604780
0.519043	1.604816
0.519531	1.604712
0.520020	1.604712
0.520508	1.605190
0.520996	1.605016
0.521484	1.604894
0.521973	1.604789
0.522461	1.604713
0.522949	1.604915
0.523437	1.604855
0.523926	1.604820
0.524414	1.604875
0.524902	1.604467
0.525391	1.604703
0.525879	1.605065
0.526367	1.604802
0.526855	1.604871
0.527344	1.604689
0.527832	1.604865
0.528320	1.604827
0.528809	1.604825
0.529297	1.604686
0.529785	1.604590
0.530273	1.604760
0.530762	1.604676
0.531250	1.604825
0.531738	1.604700
0.532227	1.604641
0.532715	1.604617
0.533203	1.604581
0.533691	1.604573
0.534180	1.604721
0.534668	1.604617
0.535156	1.604517
0.535645	1.604535
0.536133	1.604582
0.536621	1.604677
0.537109	1.604621
0.537598	1.604614
0.538086	1.604634
0.538574	1.604752
0.539062	1.604525
0.539551	1.604771
0.540039	1.604577
0.540527	1.604410
0.541016	1.604435
0.541504	1.604676
0.541992	1.604468
0.542480	1.604535
0.542969	1.604501
0.543457	1.604339
0.543945	1.604705
0.544434	1.604400
0.544922	1.604431
0.545410	1.604389
0.545898	1.604260
0.546387	1.604293
0.546875	1.604104
0.547363	1.604229
0.547852	1.604078
0.548340	1.604254
0.548828	1.604292
0.549316	1.604343
0.549805	1.604212
0.550293	1.604210
0.550781	1.604411
0.551270	1.603985
0.551758	1.604241
0.552246	1.604418
0.552734	1.604199
0.553223	1.603994
0.553711	1.604264
0.554199	1.604417
0.554687	1.604184
0.555176	1.604205
0.555664	1.604113
0.556152	1.604207
0.556641	1.604479
0.557129	1.604326
0.557617	1.604523
0.558105	1.604509
0.558594	1.604436
0.559082	1.604348
0.559570	1.604296
0.560059	1.604225
0.560547	1.604568
0.561035	1.604153
0.561523	1.604153
0.562012	1.604321
0.562500	1.604325
0.562988	1.604158
0.563477	1.604313
0.563965	1.604351
0.564453	1.604175
0.564941	1.604453
0.565430	1.604346
0.565918	1.604416
0.566406	1.604285
0.566895	1.604398
0.567383	1.604428
0.567871	1.604690
0.568359	1.604354
0.568848	1.604246
0.569336	1.604636
0.569824	1.604618
0.570312	1.604705
0.570801	1.604495
0.571289	1.604542
0.571777	1.604655
0.572266	1.604526
0.572754	1.604739
0.573242	1.604710
0.573730	1.604766
0.574219	1.604756
0.574707	1.604539
0.575195	1.604632
0.575684	1.604670
0.576172	1.604683
0.576660	1.604904
0.577148	1.604867
0.577637	1.604727
0.578125	1.604763
0.578613	1.604904
0.579102	1.604841
0.579590	1.604897
0.580078	1.604991
0.580566	1.604829
0.581055	1.604844
0.581543	1.605007
0.582031	1.604860
0.582520	1.605017
0.583008	1.604821
0.583496	1.604755
0.583984	1.604900
0.584473	1.605021
0.584961	1.604774
0.585449	1.604881
0.585937	1.605211
0.586426	1.605162
0.586914	1.604986
0.587402	1.604999
0.587891	1.605145
0.588379	1.604951
0.588867	1.604960
0.589355	1.604948
0.589844	1.604957
0.590332	1.605019
0.590820	1.605139
0.591309	1.605186
0.591797	1.605106
0.592285	1.605099
0.592773	1.604952
0.593262	1.605137
0.593750	1.605170
0.594238	1.605038
0.594727	1.605110
0.595215	1.604998
0.595703	1.604893
0.596191	1.604860
0.596680	1.605234
0.597168	1.605419
0.597656	1.604941
0.598145	1.605132
0.598633	1.604998
0.599121	1.605141
0.599609	1.605383
0.600098	1.605118
0.600586	1.604896
0.601074	1.605273
0.601562	1.605267
0.602051	1.605200
0.602539	1.605096
0.603027	1.605213
0.603516	1.605363
0.604004	1.605005
0.604492	1.604691
0.604980	1.604720
0.605469	1.604793
0.605957	1.605248
0.606445	1.605130
0.606934	1.604857
0.607422	1.604845
0.607910	1.604880
0.608398	1.604805
0.608887	1.604785
0.609375	1.605010
0.609863	1.605043
0.610352	1.604785
0.610840	1.604796
0.611328	1.604689
0.611816	1.604780
0.612305	1.604893
0.612793	1.604768
0.613281	1.604747
0.613770	1.604713
0.614258	1.604824
0.614746	1.604944
0.615234	1.604939
0.615723	1.604990
0.616211	1.604840
0.616699	1.605005
0.617187	1.604805
0.617676	1.605035
0.618164	1.605083
0.618652	1.604718
0.619141	1.604705
0.619629	1.604635
0.620117	1.604641
0.620605	1.604716
0.621094	1.604722
0.621582	1.604512
0.622070	1.604702
0.622559	1.604735
0.623047	1.604542
0.623535	1.604604
0.624023	1.604436
0.624512	1.604502
0.625000	1.604454
0.625488	1.604583
0.625977	1.604314
0.626465	1.604578
0.626953	1.604918
0.627441	1.604698
0.627930	1.604555
0.628418	1.604544
0.628906	1.604714
0.629395	1.604642
0.629883	1.604545
0.630371	1.604542
0.630859	1.604644
0.631348	1.604492
0.631836	1.604572
0.632324	1.604596
0.632812	1.604491
0.633301	1.604600
0.633789	1.604562
0.634277	1.604232
0.634766	1.604565
0.635254	1.604562
0.635742	1.604519
0.636230	1.604401
0.636719	1.604585
0.637207	1.604653
0.637695	1.604655
0.638184	1.604443
0.638672	1.604464
0.639160	1.604467
0.639648	1.604262
0.640137	1.604317
0.640625	1.604511
0.641113	1.604398
0.641602	1.604361
0.642090	1.604299
0.642578	1.604257
0.643066	1.604458
0.643555	1.604528
0.644043	1.604409
0.644531	1.604459
0.645020	1.604497
0.645508	1.604627
0.645996	1.604530
0.646484	1.604556
0.646973	1.604417
0.647461	1.604480
0.647949	1.604627
0.648437	1.604614
0.648926	1.604623
0.649414	1.604580
0.649902	1.604523
0.650391	1.604399
0.650879	1.604446
0.651367	1.604527
0.651855	1.604567
0.652344	1.604426
0.652832	1.604488
0.653320	1.604347
0.653809	1.604492
0.654297	1.604354
0.654785	1.604390
0.655273	1.604502
0.655762	1.604623
0.656250	1.604602
0.656738	1.604511
0.657227	1.604674
0.657715	1.604469
0.658203	1.604777
0.658691	1.604143
0.659180	1.604283
0.659668	1.604345
0.660156	1.604476
0.660645	1.604210
0.661133	1.604487
0.661621	1.604771
0.662109	1.604322
0.662598	1.604339
0.663086	1.604225
0.663574	1.604384
0.664062	1.604238
0.664551	1.604157
0.665039	1.604163
0.665527	1.604282
0.666016	1.604663
0.666504	1.604500
0.666992	1.604558
0.667480	1.604364
0.667969	1.604343
0.668457	1.604274
0.668945	1.604313
0.669434	1.604435
0.669922	1.604464
0.670410	1.604287
0.670898	1.604340
0.671387	1.604262
0.671875	1.604184
0.672363	1.604500
0.672852	1.604578
0.673340	1.604517
0.673828	1.604276
0.674316	1.603912
0.674805	1.604205
0.675293	1.604364
0.675781	1.604250
0.676270	1.604014
0.676758	1.604372
0.677246	1.604269
0.677734	1.604069
0.678223	1.604255
0.678711	1.604191
0.679199	1.604141
0.679687	1.604281
0.680176	1.604011
0.680664	1.604156
0.681152	1.604151
0.681641	1.604189
0.682129	1.604237
0.682617	1.604154
0.683105	1.604029
0.683594	1.604025
0.684082	1.604207
0.684570	1.604423
0.685059	1.604256
0.685547	1.604347
0.686035	1.604330
0.686523	1.604336
0.687012	1.604319
0.687500	1.604406
0.687988	1.604721
0.688477	1.604341
0.688965	1.604182
0.689453	1.604544
0.689941	1.604445
0.690430	1.604444
0.690918	1.604526
0.691406	1.604456
0.691895	1.604424
0.692383	1.604249
0.692871	1.604411
0.693359	1.604716
0.693848	1.604592
0.694336	1.604386
0.694824	1.604391
0.695312	1.604545
0.695801	1.604591
0.696289	1.604615
0.696777	1.604638
0.697266	1.604582
0.697754	1.604506
0.698242	1.604614
0.698730	1.604846
0.699219	1.604804
0.699707	1.604568
0.700195	1.604636
0.700684	1.604899
0.701172	1.604517
0.701660	1.604877
0.702148	1.604871
0.702637	1.604751
0.703125	1.604655
0.703613	1.604461
0.704102	1.604767
0.704590	1.604604
0.705078	1.604960
0.705566	1.604866
0.706055	1.604783
0.706543	1.604760
0.707031	1.604680
0.707520	1.604693
0.708008	1.604580
0.708496	1.604794
0.708984	1.604755
0.709473	1.604404
0.709961	1.604294
0.710449	1.604605
0.710937	1.604706
0.711426	1.604653
0.711914	1.604629
0.712402	1.604536
0.712891	1.604443
0.713379	1.604436
0.713867	1.604624
0.714355	1.605050
0.714844	1.604871
0.715332	1.604698
0.715820	1.604638
0.716309	1.604636
0.716797	1.604956
0.717285	1.604952
0.717773	1.604836
0.718262	1.604687
0.718750	1.604880
0.719238	1.604840
0.719727	1.604745
0.720215	1.604625
0.720703	1.604504
0.721191	1.604607
0.721680	1.604683
0.722168	1.604537
0.722656	1.604833
0.723145	1.604616
0.723633	1.604633
0.724121	1.604617
0.724609	1.604342
0.725098	1.604325
0.725586	1.604371
0.726074	1.604932
0.726562	1.604705
0.727051	1.604602
0.727539	1.604360
0.728027	1.604630
0.728516	1.604581
0.729004	1.604328
0.729492	1.604572
0.729980	1.604836
0.730469	1.604766
0.730957	1.604760
0.731445	1.604682
0.731934	1.604637
0.732422	1.604894
0.732910	1.604794
0.733398	1.604777
0.733887	1.604724
0.734375	1.604734
0.734863	1.604822
0.735352	1.604725
0.735840	1.604856
0.736328	1.604629
0.736816	1.604900
0.737305	1.604840
0.737793	1.604866
0.738281	1.604931
0.738770	1.604832
0.739258	1.604944
0.739746	1.604558
0.740234	1.604706
0.740723	1.604692
0.741211	1.604625
0.741699	1.604794
0.742187	1.604835
0.742676	1.605040
0.743164	1.604671
0.743652	1.604617
0.744141	1.604441
0.744629	1.604636
0.745117	1.604763
0.745605	1.604738
0.746094	1.604504
0.746582	1.604570
0.747070	1.604626
0.747559	1.604657
0.748047	1.604643
0.748535	1.604473
0.749023	1.604665
0.749512	1.604482
0.750000	1.604595
0.750488	1.604586
0.750977	1.604603
0.751465	1.604476
0.751953	1.604462
0.752441	1.604203
0.752930	1.604422
0.753418	1.604342
0.753906	1.604457
0.754395	1.604480
0.754883	1.604382
0.755371	1.604389
0.755859	1.604424
0.756348	1.604528
0.756836	1.604600
0.757324	1.604144
0.757812	1.604514
0.758301	1.604354
0.758789	1.604558
0.759277	1.604750
0.759766	1.604581
0.760254	1.604386
0.760742	1.604032
0.761230	1.604237
0.761719	1.604287
0.762207	1.604305
0.762695	1.604036
0.763184	1.604351
0.763672	1.604251
0.764160	1.604220
0.764648	1.604204
0.765137	1.604098
0.765625	1.604196
0.766113	1.604217
0.766602	1.604254
0.767090	1.604081
0.767578	1.604088
0.768066	1.604289
0.768555	1.604364
0.769043	1.604443
0.769531	1.604196
0.770020	1.604246
0.770508	1.604054
0.770996	1.603907
0.771484	1.604181
0.771973	1.604425
0.772461	1.604047
0.772949	1.604027
0.773437	1.603966
0.773926	1.604164
0.774414	1.604082
0.774902	1.604123
0.775391	1.604080
0.775879	1.604016
0.776367	1.604111
0.776855	1.604136
0.777344	1.604183
0.777832	1.604116
0.778320	1.603992
0.778809	1.604124
0.779297	1.603768
0.779785	1.603911
0.780273	1.604129
0.780762	1.604000
0.781250	1.604052
0.781738	1.603468
0.782227	1.603761
0.782715	1.603902
0.783203	1.604184
0.783691	1.604005
0.784180	1.604053
0.784668	1.603998
0.785156	1.603867
0.785645	1.604063
0.786133	1.603880
0.786621	1.604109
0.787109	1.604229
0.787598	1.604090
0.788086	1.603778
0.788574	1.604104
0.789062	1.604174
0.789551	1.604090
0.790039	1.604006
0.790527	1.604131
0.791016	1.603934
0.791504	1.603964
0.791992	1.604023
0.792480	1.604250
0.792969	1.604071
0.793457	1.603969
0.793945	1.604052
0.794434	1.604053
0.794922	1.604301
0.795410	1.604111
0.795898	1.604230
0.796387	1.604164
0.796875	1.604227
0.797363	1.604267
0.797852	1.604333
0.798340	1.604313
0.798828	1.604273
0.799316	1.604196
0.799805	1.604433
0.800293	1.604063
0.800781	1.604468
0.801270	1.604505
0.801758	1.604401
0.802246	1.604333
0.802734	1.603893
0.803223	1.604346
0.803711	1.604480
0.804199	1.604460
0.804687	1.604188
0.805176	1.604506
0.805664	1.604453
0.806152	1.604221
0.806641	1.604319
0.807129	1.604499
0.807617	1.604303
0.808105	1.604344
0.808594	1.604282
0.809082	1.604276
0.809570	1.604311
0.810059	1.604326
0.810547	1.604450
0.811035	1.604429
0.811523	1.604304
0.812012	1.604411
0.812500	1.604315
0.812988	1.604376
0.813477	1.604390
0.813965	1.604570
0.814453	1.604310
0.814941	1.604487
0.815430	1.604607
0.815918	1.604599
0.816406	1.604562
0.816895	1.604615
0.817383	1.604586
0.817871	1.604539
0.818359	1.604549
0.818848	1.604860
0.819336	1.604750
0.819824	1.604432
0.820312	1.604387
0.820801	1.604520
0.821289	1.604168
0.821777	1.604527
0.822266	1.604334
0.822754	1.604030
0.823242	1.604298
0.823730	1.604492
0.824219	1.604304
0.824707	1.604285
0.825195	1.604321
0.825684	1.604237
0.826172	1.604149
0.826660	1.604289
0.827148	1.604929
0.827637	1.604686
0.828125	1.604311
0.828613	1.604275
0.829102	1.604476
0.829590	1.604661
0.830078	1.604626
0.830566	1.604633
0.831055	1.604503
0.831543	1.604366
0.832031	1.604519
0.832520	1.604802
0.833008	1.604725
0.833496	1.604329
0.833984	1.604305
0.834473	1.604742
0.834961	1.604350
0.835449	1.604468
0.835937	1.604500
0.836426	1.604728
0.836914	1.604570
0.837402	1.604253
0.837891	1.604267
0.838379	1.604492
0.838867	1.604383
0.839355	1.604394
0.839844	1.604506
0.840332	1.604265
0.840820	1.604300
0.841309	1.604456
0.841797	1.604508
0.842285	1.604422
0.842773	1.604511
0.843262	1.604379
0.843750	1.604422
0.844238	1.604297
0.844727	1.604446
0.845215	1.604371
0.845703	1.604205
0.846191	1.604406
0.846680	1.604458
0.847168	1.604565
0.847656	1.604556
0.848145	1.604520
0.848633	1.604461
0.849121	1.604362
0.849609	1.604410
0.850098	1.604467
0.850586	1.604343
0.851074	1.604388
0.851562	1.604517
0.852051	1.604365
0.852539	1.604195
0.853027	1.604038
0.853516	1.604415
0.854004	1.604418
0.854492	1.604176
0.854980	1.604301
0.855469	1.604332
0.855957	1.604337
0.856445	1.604254
0.856934	1.604372
0.857422	1.604350
0.857910	1.604257
0.858398	1.604466
0.858887	1.604430
0.859375	1.604433
0.859863	1.604323
0.860352	1.604536
0.860840	1.604354
0.861328	1.604306
0.861816	1.604303
0.862305	1.604415
0.862793	1.604732
0.863281	1.604600
0.863770	1.604409
0.864258	1.604453
0.864746	1.604601
0.865234	1.604443
0.865723	1.604290
0.866211	1.604769
0.866699	1.604964
0.867187	1.604423
0.867676	1.604450
0.868164	1.604570
0.868652	1.604556
0.869141	1.604710
0.869629	1.604553
0.870117	1.604525
0.870605	1.604449
0.871094	1.604420
0.871582	1.604627
0.872070	1.604793
0.872559	1.604583
0.873047	1.604618
0.873535	1.604434
0.874023	1.604475
0.874512	1.604492
0.875000	1.604503
0.875488	1.604382
0.875977	1.604495
0.876465	1.604552
0.876953	1.604692
0.877441	1.604595
0.877930	1.604603
0.878418	1.604279
0.878906	1.604753
0.879395	1.604590
0.879883	1.604658
0.880371	1.604741
0.880859	1.604428
0.881348	1.604439
0.881836	1.604282
0.882324	1.604527
0.882812	1.604452
0.883301	1.604501
0.883789	1.604678
0.884277	1.604722
0.884766	1.604762
0.885254	1.604475
0.885742	1.604614
0.886230	1.604498
0.886719	1.604719
0.887207	1.604695
0.887695	1.604598
0.888184	1.604431
0.888672	1.604511
0.889160	1.604788
0.889648	1.604635
0.890137	1.604717
0.890625	1.604849
0.891113	1.604472
0.891602	1.604524
0.892090	1.604414
0.892578	1.604738
0.893066	1.604753
0.893555	1.604682
0.894043	1.604654
0.894531	1.604434
0.895020	1.604258
0.895508	1.604642
0.895996	1.604788
0.896484	1.604552
0.896973	1.604609
0.897461	1.604568
0.897949	1.604752
0.898437	1.604725
0.898926	1.604723
0.899414	1.604487
0.899902	1.604910
0.900391	1.604821
0.900879	1.604927
0.901367	1.604889
0.901855	1.604804
0.902344	1.604930
0.902832	1.604578
0.903320	1.604619
0.903809	1.604594
0.904297	1.604639
0.904785	1.604980
0.905273	1.604830
0.905762	1.604863
0.906250	1.604884
0.906738	1.604825
0.907227	1.604653
0.907715	1.604875
0.908203	1.604877
0.908691	1.604779
0.909180	1.604783
0.909668	1.604688
0.910156	1.604458
0.910645	1.604841
0.911133	1.605118
0.911621	1.604819
0.912109	1.604922
0.912598	1.604719
0.913086	1.604536
0.913574	1.604874
0.914062	1.604851
0.914551	1.604750
0.915039	1.604727
0.915527	1.604988
0.916016	1.604760
0.916504	1.604825
0.916992	1.604999
0.917480	1.604875
0.917969	1.605001
0.918457	1.604813
0.918945	1.604801
0.919434	1.605106
0.919922	1.604550
0.920410	1.604623
0.920898	1.604785
0.921387	1.604708
0.921875	1.604509
0.922363	1.604680
0.922852	1.604533
0.923340	1.604578
0.923828	1.604791
0.924316	1.604414
0.924805	1.604698
0.925293	1.604573
0.925781	1.604741
0.926270	1.604689
0.926758	1.604500
0.927246	1.604479
0.927734	1.604583
0.928223	1.604826
0.928711	1.604730
0.929199	1.604694
0.929687	1.604644
0.930176	1.604674
0.930664	1.604652
0.931152	1.604584
0.931641	1.604910
0.932129	1.604948
0.932617	1.604694
0.933105	1.604545
0.933594	1.604864
0.934082	1.604824
0.934570	1.604927
0.935059	1.604952
0.935547	1.604894
0.936035	1.604710
0.936523	1.604539
0.937012	1.604906
0.937500	1.604999
0.937988	1.604766
0.938477	1.604417
0.938965	1.604926
0.939453	1.604815
0.939941	1.604616
0.940430	1.604732
0.940918	1.604686
0.941406	1.604696
0.941895	1.604439
0.942383	1.604389
0.942871	1.604588
0.943359	1.604677
0.943848	1.604966
0.944336	1.604594
0.944824	1.604749
0.945312	1.604627
0.945801	1.604883
0.946289	1.604543
0.946777	1.604695
0.947266	1.604843
0.947754	1.604810
0.948242	1.604764
0.948730	1.604786
0.949219	1.604645
0.949707	1.604844
0.950195	1.604947
0.950684	1.604940
0.951172	1.604707
0.951660	1.604990
0.952148	1.604829
0.952637	1.604918
0.953125	1.605021
0.953613	1.604753
0.954102	1.604822
0.954590	1.604725
0.955078	1.604905
0.955566	1.604841
0.956055	1.604846
0.956543	1.605015
0.957031	1.604979
0.957520	1.605062
0.958008	1.604779
0.958496	1.604741
0.958984	1.604635
0.959473	1.604558
0.959961	1.604789
0.960449	1.604959
0.960937	1.604692
0.961426	1.604663
0.961914	1.604692
0.962402	1.604841
0.962891	1.604764
0.963379	1.604851
0.963867	1.604823
0.964355	1.604683
0.964844	1.604841
0.965332	1.604776
0.965820	1.604775
0.966309	1.604876
0.966797	1.604859
0.967285	1.604757
0.967773	1.604487
0.968262	1.604681
0.968750	1.604696
0.969238	1.604572
0.969727	1.604630
0.970215	1.604202
0.970703	1.604449
0.971191	1.604454
0.971680	1.604602
0.972168	1.604572
0.972656	1.604677
0.973145	1.604608
0.973633	1.604297
0.974121	1.604559
0.974609	1.604282
0.975098	1.604318
0.975586	1.604717
0.976074	1.604633
0.976562	1.604335
0.977051	1.604482
0.977539	1.604252
0.978027	1.604481
0.978516	1.604616
0.979004	1.604372
0.979492	1.604269
0.979980	1.604002
0.980469	1.604194
0.980957	1.604401
0.981445	1.604531
0.981934	1.604182
0.982422	1.604229
0.982910	1.604490
0.983398	1.604226
0.983887	1.604270
0.984375	1.604121
0.984863	1.604171
0.985352	1.604137
0.985840	1.604194
0.986328	1.604076
0.986816	1.604176
0.987305	1.604388
0.987793	1.604312
0.988281	1.604160
0.988770	1.604025
0.989258	1.604270
0.989746	1.604309
0.990234	1.603871
0.990723	1.604166
0.991211	1.604537
0.991699	1.604140
0.992187	1.604129
0.992676	1.604057
0.993164	1.604127
0.993652	1.604331
0.994141	1.604134
0.994629	1.603968
0.995117	1.603917
0.995605	1.604342
0.996094	1.604162
0.996582	1.604135
0.997070	1.604164
0.997559	1.603961
0.998047	1.604260
0.998535	1.604165
0.999023	1.604084
0.999512	1.604236
1.000000	1.604096
1.000488	1.604209
1.000977	1.604312
1.001465	1.604247
1.001953	1.604234
1.002441	1.604336
1.002930	1.604289
1.003418	1.604255
1.003906	1.604192
1.004395	1.604428
1.004883	1.604414
1.005371	1.604323
1.005859	1.603963
1.006348	1.604547
1.006836	1.604839
1.007324	1.604338
1.007812	1.604384
1.008301	1.604448
1.008789	1.604586
1.009277	1.604561
1.009766	1.604642
1.010254	1.604436
1.010742	1.604477
1.011230	1.604411
1.011719	1.604704
1.012207	1.604852
1.012695	1.604656
1.013184	1.604717
1.013672	1.604770
1.014160	1.604665
1.014648	1.604673
1.015137	1.604671
1.015625	1.604714
1.016113	1.604840
1.016602	1.604890
1.017090	1.604729
1.017578	1.604504
1.018066	1.604846
1.018555	1.604892
1.019043	1.604849
1.019531	1.604855
1.020020	1.604688
1.020508	1.604679
1.020996	1.604626
1.021484	1.604633
1.021973	1.604853
1.022461	1.604785
1.022949	1.604603
1.023437	1.604505
1.023926	1.604464
1.024414	1.604724
1.024902	1.604714
1.025391	1.604511
1.025879	1.604470
1.026367	1.604731
1.026855	1.604584
1.027344	1.604757
1.027832	1.604772
1.028320	1.604697
1.028809	1.604564
1.029297	1.604625
1.029785	1.604653
1.030273	1.604731
1.030762	1.604739
1.031250	1.604814
1.031738	1.604664
1.032227	1.604190
1.032715	1.604506
1.033203	1.604603
1.033691	1.604784
1.034180	1.604686
1.034668	1.604503
1.035156	1.604572
1.035645	1.604569
1.036133	1.604575
1.036621	1.604278
1.037109	1.604422
1.037598	1.604784
1.038086	1.604483
1.038574	1.604088
1.039062	1.604376
1.039551	1.604366
1.040039	1.604383
1.040527	1.604375
1.041016	1.604267
1.041504	1.604190
1.041992	1.604278
1.042480	1.604384
1.042969	1.604563
1.043457	1.604348
1.043945	1.604263
1.044434	1.604406
1.044922	1.604454
1.045410	1.604252
1.045898	1.604599
1.046387	1.604382
1.046875	1.604397
1.047363	1.604307
1.047852	1.604204
1.048340	1.604110
1.048828	1.604300
1.049316	1.604261
1.049805	1.604058
1.050293	1.604356
1.050781	1.604255
1.051270	1.604448
1.051758	1.604012
1.052246	1.603980
1.052734	1.604237
1.053223	1.604504
1.053711	1.604242
1.054199	1.604171
1.054687	1.604296
1.055176	1.604313
1.055664	1.604318
1.056152	1.604479
1.056641	1.604576
1.057129	1.604483
1.057617	1.604182
1.058105	1.604458
1.058594	1.604485
1.059082	1.604498
1.059570	1.604085
1.060059	1.604336
1.060547	1.604471
1.061035	1.604237
1.061523	1.604326
1.062012	1.604173
1.062500	1.604268
1.062988	1.604503
1.063477	1.604361
1.063965	1.604157
1.064453	1.604199
1.064941	1.604451
1.065430	1.604491
1.065918	1.604367
1.066406	1.604455
1.066895	1.604114
1.067383	1.604321
1.067871	1.604343
1.068359	1.604484
1.068848	1.604416
1.069336	1.604148
1.069824	1.604080
1.070312	1.604174
1.070801	1.604074
1.071289	1.604179
1.071777	1.604203
1.072266	1.603979
1.072754	1.604127
1.073242	1.604049
1.073730	1.604045
1.074219	1.604004
1.074707	1.604113
1.075195	1.604153
1.075684	1.604072
1.076172	1.604262
1.076660	1.604226
1.077148	1.604129
1.077637	1.603924
1.078125	1.604102
1.078613	1.604384
1.079102	1.604182
1.079590	1.603897
1.080078	1.603887
1.080566	1.603919
1.081055	1.604071
1.081543	1.604066
1.082031	1.603931
1.082520	1.603773
1.083008	1.604171
1.083496	1.603827
1.083984	1.603772
1.084473	1.603756
1.084961	1.603919
1.085449	1.603943
1.085937	1.604004
1.086426	1.603911
1.086914	1.603800
1.087402	1.603765
1.087891	1.603975
1.088379	1.604000
1.088867	1.603980
1.089355	1.604112
1.089844	1.604110
1.090332	1.603761
1.090820	1.603943
1.091309	1.604271
1.091797	1.604180
1.092285	1.603875
1.092773	1.603909
1.093262	1.603777
1.093750	1.603850
1.094238	1.604073
1.094727	1.603963
1.095215	1.604069
1.095703	1.603563
1.096191	1.603669
1.096680	1.603939
1.097168	1.604114
1.097656	1.604082
1.098145	1.604038
1.098633	1.604274
1.099121	1.603933
1.099609	1.604290
1.100098	1.603995
1.100586	1.603950
1.101074	1.604443
1.101562	1.604763
1.102051	1.604285
1.102539	1.604156
1.103027	1.604284
1.103516	1.604403
1.104004	1.604328
1.104492	1.604377
1.104980	1.603977
1.105469	1.604248
1.105957	1.604586
1.106445	1.604484
1.106934	1.604462
1.107422	1.604351
1.107910	1.604534
1.108398	1.604134
1.108887	1.604571
1.109375	1.604177
1.109863	1.604301
1.110352	1.604519
1.110840	1.604481
1.111328	1.604705
1.111816	1.604572
1.112305	1.604570
1.112793	1.604406
1.113281	1.604371
1.113770	1.604663
1.114258	1.604622
1.114746	1.604714
1.115234	1.604619
1.115723	1.604637
1.116211	1.604759
1.116699	1.604823
1.117187	1.604732
1.117676	1.604549
1.118164	1.604706
1.118652	1.604717
1.119141	1.604733
1.119629	1.604824
1.120117	1.604548
1.120605	1.604412
1.121094	1.604674
1.121582	1.604652
1.122070	1.604368
1.122559	1.604630
1.123047	1.604546
1.123535	1.604719
1.124023	1.604635
1.124512	1.604565
1.125000	1.604501
1.125488	1.604520
1.125977	1.604695
1.126465	1.604664
1.126953	1.604738
1.127441	1.604644
1.127930	1.604570
1.128418	1.604527
1.128906	1.604606
1.129395	1.604664
1.129883	1.604732
1.130371	1.604688
1.130859	1.604594
1.131348	1.604361
1.131836	1.604448
1.132324	1.604697
1.132812	1.604697
1.133301	1.604568
1.133789	1.604570
1.134277	1.604472
1.134766	1.604390
1.135254	1.604456
1.135742	1.604517
1.136230	1.604433
1.136719	1.604621
1.137207	1.604667
1.137695	1.604315
1.138184	1.604478
1.138672	1.604188
1.139160	1.604633
1.139648	1.604161
1.140137	1.604239
1.140625	1.604346
1.141113	1.604212
1.141602	1.603994
1.142090	1.604526
1.142578	1.604173
1.143066	1.604213
1.143555	1.604474
1.144043	1.604345
1.144531	1.604273
1.145020	1.604342
1.145508	1.604179
1.145996	1.604104
1.146484	1.604381
1.146973	1.604342
1.147461	1.604430
1.147949	1.604317
1.148437	1.604377
1.148926	1.604279
1.149414	1.604268
1.149902	1.604224
1.150391	1.604359
1.150879	1.604348
1.151367	1.604066
1.151855	1.604047
1.152344	1.604344
1.152832	1.603971
1.153320	1.604021
1.153809	1.604170
1.154297	1.604469
1.154785	1.604124
1.155273	1.603853
1.155762	1.604118
1.156250	1.604077
1.156738	1.604323
1.157227	1.604154
1.157715	1.604292
1.158203	1.604272
1.158691	1.604306
1.159180	1.604318
1.159668	1.604183
1.160156	1.604135
1.160645	1.604282
1.161133	1.604279
1.161621	1.604207
1.162109	1.604055
1.162598	1.603968
1.163086	1.604251
1.163574	1.604307
1.164062	1.604290
1.164551	1.604230
1.165039	1.604090
1.165527	1.604353
1.166016	1.604251
1.166504	1.604393
1.166992	1.603926
1.167480	1.604470
1.167969	1.604452
1.168457	1.604148
1.168945	1.604199
1.169434	1.604088
1.169922	1.604192
1.170410	1.604260
1.170898	1.604440
1.171387	1.603892
1.171875	1.604094
1.172363	1.604303
1.172852	1.604277
1.173340	1.604142
1.173828	1.604226
1.174316	1.604160
1.174805	1.604046
1.175293	1.604087
1.175781	1.604258
1.176270	1.604333
1.176758	1.604146
1.177246	1.604165
1.177734	1.604434
1.178223	1.604378
1.178711	1.604338
1.179199	1.604201
1.179687	1.604260
1.180176	1.604118
1.180664	1.603903
1.181152	1.604028
1.181641	1.604081
1.182129	1.604325
1.182617	1.604363
1.183105	1.604069
1.183594	1.604239
1.184082	1.603987
1.184570	1.604110
1.185059	1.604146
1.185547	1.604168
1.186035	1.604018
1.186523	1.604257
1.187012	1.604515
1.187500	1.603984
1.187988	1.603886
1.188477	1.604182
1.188965	1.604091
1.189453	1.604257
1.189941	1.604066
1.190430	1.604348
1.190918	1.604218
1.191406	1.604195
1.191895	1.604170
1.192383	1.603940
1.192871	1.604083
1.193359	1.604501
1.193848	1.604249
1.194336	1.603908
1.194824	1.604085
1.195312	1.604223
1.195801	1.604292
1.196289	1.604364
1.196777	1.604185
1.197266	1.603992
1.197754	1.604482
1.198242	1.604301
1.198730	1.604432
1.199219	1.604338
1.199707	1.604390
1.200195	1.604249
1.200684	1.604420
1.201172	1.604234
1.201660	1.604419
1.202148	1.604277
1.202637	1.604401
1.203125	1.604320
1.203613	1.604224
1.204102	1.604309
1.204590	1.604370
1.205078	1.604182
1.205566	1.604404
1.206055	1.604404
1.206543	1.604235
1.207031	1.604384
1.207520	1.604332
1.208008	1.604382
1.208496	1.604224
1.208984	1.604182
1.209473	1.604069
1.209961	1.604161
1.210449	1.604519
1.210937	1.604588
1.211426	1.604353
1.211914	1.604436
1.212402	1.604463
1.212891	1.604616
1.213379	1.604492
1.213867	1.604536
1.214355	1.604748
1.214844	1.604583
1.215332	1.604528
1.215820	1.604537
1.216309	1.604596
1.216797	1.604652
1.217285	1.604741
1.217773	1.604357
1.218262	1.604447
1.218750	1.604565
1.219238	1.604356
1.219727	1.604334
1.220215	1.604429
1.220703	1.604193
1.221191	1.604512
1.221680	1.604561
1.222168	1.604623
1.222656	1.604589
1.223145	1.604210
1.223633	1.604378
1.224121	1.604570
1.224609	1.604526
1.225098	1.604221
1.225586	1.604507
1.226074	1.604613
1.226562	1.604638
1.227051	1.604735
1.227539	1.604497
1.228027	1.604148
1.228516	1.604783
1.229004	1.604632
1.229492	1.604713
1.229980	1.604355
1.230469	1.604680
1.230957	1.604780
1.231445	1.604638
1.231934	1.604619
1.232422	1.604550
1.232910	1.604666
1.233398	1.604660
1.233887	1.604702
1.234375	1.604724
1.234863	1.604580
1.235352	1.604655
1.235840	1.604547
1.236328	1.604728
1.236816	1.604759
1.237305	1.604774
1.237793	1.604604
1.238281	1.604661
1.238770	1.604537
1.239258	1.604519
1.239746	1.604564
1.240234	1.604550
1.240723	1.604398
1.241211	1.604623
1.241699	1.604485
1.242187	1.604582
1.242676	1.604472
1.243164	1.604480
1.243652	1.604456
1.244141	1.604644
1.244629	1.604452
1.245117	1.604377
1.245605	1.604572
1.246094	1.604453
1.246582	1.604706
1.247070	1.604623
1.247559	1.604304
1.248047	1.604535
1.248535	1.604398
1.249023	1.604405
1.249512	1.604535
1.250000	1.604406
1.250488	1.604384
1.250977	1.604472
1.251465	1.604159
1.251953	1.604131
1.252441	1.604752
1.252930	1.604503
1.253418	1.604236
1.253906	1.604351
1.254395	1.604393
1.254883	1.604468
1.255371	1.604419
1.255859	1.604245
1.256348	1.604235
1.256836	1.604523
1.257324	1.604408
1.257812	1.604484
1.258301	1.604339
1.258789	1.604235
1.259277	1.604186
1.259766	1.604272
1.260254	1.604271
1.260742	1.604267
1.261230	1.604127
1.261719	1.604348
1.262207	1.604489
1.262695	1.604210
1.263184	1.604368
1.263672	1.604426
1.264160	1.604251
1.264648	1.604251
1.265137	1.604507
1.265625	1.604379
1.266113	1.604260
1.266602	1.604274
1.267090	1.604135
1.267578	1.604240
1.268066	1.604280
1.268555	1.604283
1.269043	1.604246
1.269531	1.604190
1.270020	1.604195
1.270508	1.604136
1.270996	1.604112
1.271484	1.604242
1.271973	1.604112
1.272461	1.604091
1.272949	1.604056
1.273437	1.604144
1.273926	1.604051
1.274414	1.604062
1.274902	1.604064
1.275391	1.603985
1.275879	1.603942
1.276367	1.603971
1.276855	1.604362
1.277344	1.604250
1.277832	1.604257
1.278320	1.604139
1.278809	1.604241
1.279297	1.604087
1.279785	1.603789
1.280273	1.604142
1.280762	1.604399
1.281250	1.604184
1.281738	1.604016
1.282227	1.603931
1.282715	1.603880
1.283203	1.604147
1.283691	1.604135
1.284180	1.603957
1.284668	1.603907
1.285156	1.603933
1.285645	1.603939
1.286133	1.604045
1.286621	1.604093
1.287109	1.603822
1.287598	1.604012
1.288086	1.604215
1.288574	1.603929
1.289062	1.604070
1.289551	1.603864
1.290039	1.604059
1.290527	1.603711
1.291016	1.603438
1.291504	1.603602
1.291992	1.603665
1.292480	1.604144
1.292969	1.603985
1.293457	1.603823
1.293945	1.603678
1.294434	1.603939
1.294922	1.603865
1.295410	1.603989
1.295898	1.604082
1.296387	1.604090
1.296875	1.604009
1.297363	1.603980
1.297852	1.603900
1.298340	1.603933
1.298828	1.604333
1.299316	1.604143
1.299805	1.603927
1.300293	1.604059
1.300781	1.603652
1.301270	1.604104
1.301758	1.604190
1.302246	1.603900
1.302734	1.603960
1.303223	1.604088
1.303711	1.604143
1.304199	1.603954
1.304687	1.604065
1.305176	1.603932
1.305664	1.603980
1.306152	1.604297
1.306641	1.604207
1.307129	1.604244
1.307617	1.604020
1.308105	1.603820
1.308594	1.604180
1.309082	1.604420
1.309570	1.603966
1.310059	1.603925
1.310547	1.604193
1.311035	1.604129
1.311523	1.604221
1.312012	1.604102
1.312500	1.604213
1.312988	1.604077
1.313477	1.604126
1.313965	1.604243
1.314453	1.604271
1.314941	1.604206
1.315430	1.604324
1.315918	1.604152
1.316406	1.604443
1.316895	1.604218
1.317383	1.603991
1.317871	1.603991
1.318359	1.604004
1.318848	1.604377
1.319336	1.604285
1.319824	1.604243
1.320312	1.604154
1.320801	1.604163
1.321289	1.604148
1.321777	1.604007
1.322266	1.604258
1.322754	1.604355
1.323242	1.604135
1.323730	1.604199
1.324219	1.603996
1.324707	1.604174
1.325195	1.604179
1.325684	1.604263
1.326172	1.604113
1.326660	1.604155
1.327148	1.604260
1.327637	1.604343
1.328125	1.604594
1.328613	1.604407
1.329102	1.604229
1.329590	1.604455
1.330078	1.604324
1.330566	1.604415
1.331055	1.604382
1.331543	1.604172
1.332031	1.604363
1.332520	1.604296
1.333008	1.604310
1.333496	1.604276
1.333984	1.604358
1.334473	1.604366
1.334961	1.604185
1.335449	1.604223
1.335937	1.604287
1.336426	1.604245
1.336914	1.604230
1.337402	1.604135
1.337891	1.604356
1.338379	1.604246
1.338867	1.604302
1.339355	1.604257
1.339844	1.604399
1.340332	1.604340
1.340820	1.604356
1.341309	1.604163
1.341797	1.603923
1.342285	1.604340
1.342773	1.604287
1.343262	1.604234
1.343750	1.604213
1.344238	1.604500
1.344727	1.604365
1.345215	1.604052
1.345703	1.604035
1.346191	1.604011
1.346680	1.604257
1.347168	1.604426
1.347656	1.604206
1.348145	1.604332
1.348633	1.604215
1.349121	1.604443
1.349609	1.604046
1.350098	1.603960
1.350586	1.604542
1.351074	1.604641
1.351562	1.604220
1.352051	1.604191
1.352539	1.604068
1.353027	1.604255
1.353516	1.604434
1.354004	1.604442
1.354492	1.604231
1.354980	1.604194
1.355469	1.604407
1.355957	1.604286
1.356445	1.604454
1.356934	1.604390
1.357422	1.604256
1.357910	1.604412
1.358398	1.604199
1.358887	1.604454
1.359375	1.604345
1.359863	1.604049
1.360352	1.604361
1.360840	1.604215
1.361328	1.603966
1.361816	1.604030
1.362305	1.604331
1.362793	1.604361
1.363281	1.604197
1.363770	1.604271
1.364258	1.604152
1.364746	1.604224
1.365234	1.604245
1.365723	1.603959
1.366211	1.604388
1.366699	1.604212
1.367187	1.604046
1.367676	1.603945
1.368164	1.604137
1.368652	1.604337
1.369141	1.604187
1.369629	1.604053
1.370117	1.603765
1.370605	1.604308
1.371094	1.604245
1.371582	1.604015
1.372070	1.604178
1.372559	1.604072
1.373047	1.604274
1.373535	1.604034
1.374023	1.604047
1.374512	1.603964
1.375000	1.604134
1.375488	1.604341
1.375977	1.604244
1.376465	1.604273
1.376953	1.604148
1.377441	1.604197
1.377930	1.604078
1.378418	1.603994
1.378906	1.604271
1.379395	1.604323
1.379883	1.603920
1.380371	1.604030
1.380859	1.603931
1.381348	1.604124
1.381836	1.603994
1.382324	1.604155
1.382812	1.604079
1.383301	1.604008
1.383789	1.603893
1.384277	1.603936
1.384766	1.603875
1.385254	1.603623
1.385742	1.603885
1.386230	1.604058
1.386719	1.603887
1.387207	1.603983
1.387695	1.603841
1.388184	1.603739
1.388672	1.603886
1.389160	1.603889
1.389648	1.603670
1.390137	1.603568
1.390625	1.603857
1.391113	1.603830
1.391602	1.603913
1.392090	1.603791
1.392578	1.603895
1.393066	1.603696
1.393555	1.603562
1.394043	1.603869
1.394531	1.604231
1.395020	1.603762
1.395508	1.603750
1.395996	1.603901
1.396484	1.604009
1.396973	1.604030
1.397461	1.603979
1.397949	1.603844
1.398437	1.603833
1.398926	1.604088
1.399414	1.603919
1.399902	1.603980
1.400391	1.604017
1.400879	1.604197
1.401367	1.603963
1.401855	1.603539
1.402344	1.603906
1.402832	1.603887
1.403320	1.604142
1.403809	1.604132
1.404297	1.603902
1.404785	1.603912
1.405273	1.604020
1.405762	1.604030
1.406250	1.604052
1.406738	1.604065
1.407227	1.604455
1.407715	1.604416
1.408203	1.604127
1.408691	1.604199
1.409180	1.604132
1.409668	1.604370
1.410156	1.604230
1.410645	1.604033
1.411133	1.604051
1.411621	1.604465
1.412109	1.604292
1.412598	1.604431
1.413086	1.604179
1.413574	1.604454
1.414062	1.604479
1.414551	1.603962
1.415039	1.604087
1.415527	1.604204
1.416016	1.604508
1.416504	1.604630
1.416992	1.604411
1.417480	1.604514
1.417969	1.604338
1.418457	1.604493
1.418945	1.604132
1.419434	1.604268
1.419922	1.604599
1.420410	1.604538
1.420898	1.604337
1.421387	1.604231
1.421875	1.604040
1.422363	1.604378
1.422852	1.604581
1.423340	1.604324
1.423828	1.604151
1.424316	1.604445
1.424805	1.604526
1.425293	1.604396
1.425781	1.604432
1.426270	1.604537
1.426758	1.604573
1.427246	1.604553
1.427734	1.604410
1.428223	1.604251
1.428711	1.604286
1.429199	1.604393
1.429687	1.604591
1.430176	1.604425
1.430664	1.604481
1.431152	1.604463
1.431641	1.604321
1.432129	1.604393
1.432617	1.604631
1.433105	1.604543
1.433594	1.604400
1.434082	1.604218
1.434570	1.604326
1.435059	1.604484
1.435547	1.604559
1.436035	1.604497
1.436523	1.604538
1.437012	1.604170
1.437500	1.604066
1.437988	1.604444
1.438477	1.604493
1.438965	1.604198
1.439453	1.604047
1.439941	1.604444
1.440430	1.604273
1.440918	1.604303
1.441406	1.604354
1.441895	1.604210
1.442383	1.604263
1.442871	1.604307
1.443359	1.604165
1.443848	1.604292
1.444336	1.604157
1.444824	1.604339
1.445312	1.604158
1.445801	1.604085
1.446289	1.604116
1.446777	1.604168
1.447266	1.604420
1.447754	1.604343
1.448242	1.604137
1.448730	1.604099
1.449219	1.603742
1.449707	1.604042
1.450195	1.603962
1.450684	1.604248
1.451172	1.604345
1.451660	1.604070
1.452148	1.604221
1.452637	1.603887
1.453125	1.603845
1.453613	1.604198
1.454102	1.604036
1.454590	1.603807
1.455078	1.603940
1.455566	1.604129
1.456055	1.603972
1.456543	1.603847
1.457031	1.603962
1.457520	1.604009
1.458008	1.604274
1.458496	1.604171
1.458984	1.604066
1.459473	1.604019
1.459961	1.603839
1.460449	1.604144
1.460937	1.604605
1.461426	1.604257
1.461914	1.603977
1.462402	1.604229
1.462891	1.604382
1.463379	1.604392
1.463867	1.604227
1.464355	1.604325
1.464844	1.604058
1.465332	1.604093
1.465820	1.604158
1.466309	1.604475
1.466797	1.604453
1.467285	1.604333
1.467773	1.604227
1.468262	1.604058
1.468750	1.604136
1.469238	1.604359
1.469727	1.604200
1.470215	1.603974
1.470703	1.604218
1.471191	1.604170
1.471680	1.604093
1.472168	1.604213
1.472656	1.604116
1.473145	1.604175
1.473633	1.604290
1.474121	1.604027
1.474609	1.604284
1.475098	1.604111
1.475586	1.604111
1.476074	1.604197
1.476562	1.604288
1.477051	1.604046
1.477539	1.604206
1.478027	1.604202
1.478516	1.604114
1.479004	1.604316
1.479492	1.604204
1.479980	1.604038
1.480469	1.603997
1.480957	1.603926
1.481445	1.604209
1.481934	1.604138
1.482422	1.604083
1.482910	1.604096
1.483398	1.604256
1.483887	1.604357
1.484375	1.604177
1.484863	1.604176
1.485352	1.604041
1.485840	1.604015
1.486328	1.604074
1.486816	1.604123
1.487305	1.604350
1.487793	1.604409
1.488281	1.604116
1.488770	1.604221
1.489258	1.603890
1.489746	1.604051
1.490234	1.604254
1.490723	1.604035
1.491211	1.604083
1.491699	1.603930
1.492187	1.604016
1.492676	1.604172
1.493164	1.604207
1.493652	1.603885
1.494141	1.603860
1.494629	1.604090
1.495117	1.603961
1.495605	1.604165
1.496094	1.604173
1.496582	1.604206
1.497070	1.604072
1.497559	1.603793
1.498047	1.604005
1.498535	1.603995
1.499023	1.603925
1.499512	1.603944
1.500000	1.603867
1.500488	1.603931
1.500977	1.604071
1.501465	1.604138
1.501953	1.604021
1.502441	1.604036
1.502930	1.603858
1.503418	1.604093
1.503906	1.604065
1.504395	1.604167
1.504883	1.604184
1.505371	1.603715
1.505859	1.603858
1.506348	1.604099
1.506836	1.603979
1.507324	1.603860
1.507812	1.604054
1.508301	1.604139
1.508789	1.603848
1.509277	1.603936
1.509766	1.603971
1.510254	1.604137
1.510742	1.604205
1.511230	1.604307
1.511719	1.604095
1.512207	1.604108
1.512695	1.604005
1.513184	1.604284
1.513672	1.604232
1.514160	1.604302
1.514648	1.604433
1.515137	1.604232
1.515625	1.604241
1.516113	1.604332
1.516602	1.604494
1.517090	1.604334
1.517578	1.604253
1.518066	1.604526
1.518555	1.604362
1.519043	1.604397
1.519531	1.604165
1.520020	1.604190
1.520508	1.604359
1.520996	1.604451
1.521484	1.604296
1.521973	1.604279
1.522461	1.604180
1.522949	1.604263
1.523437	1.604456
1.523926	1.604549
1.524414	1.604580
1.524902	1.604389
1.525391	1.604194
1.525879	1.604326
1.526367	1.604492
1.526855	1.604617
1.527344	1.604447
1.527832	1.604478
1.528320	1.604716
1.528809	1.604486
1.529297	1.604479
1.529785	1.604351
1.530273	1.604237
1.530762	1.604617
1.531250	1.604872
1.531738	1.604343
1.532227	1.604320
1.532715	1.604368
1.533203	1.604452
1.533691	1.604546
1.534180	1.604517
1.534668	1.604322
1.535156	1.604454
1.535645	1.604413
1.536133	1.604613
1.536621	1.604752
1.537109	1.604458
1.537598	1.604518
1.538086	1.604390
1.538574	1.604611
1.539062	1.604439
1.539551	1.604414
1.540039	1.604401
1.540527	1.604571
1.541016	1.604654
1.541504	1.604398
1.541992	1.604732
1.542480	1.604658
1.542969	1.604674
1.543457	1.604478
1.543945	1.604525
1.544434	1.604723
1.544922	1.604656
1.545410	1.604609
1.545898	1.604696
1.546387	1.604688
1.546875	1.604696
1.547363	1.604746
1.547852	1.604885
1.548340	1.604514
1.548828	1.604672
1.549316	1.604547
1.549805	1.604558
1.550293	1.604487
1.550781	1.604551
1.551270	1.604384
1.551758	1.604843
1.552246	1.604639
1.552734	1.604685
1.553223	1.604512
1.553711	1.604337
1.554199	1.604595
1.554687	1.604924
1.555176	1.604678
1.555664	1.604544
1.556152	1.604749
1.556641	1.604890
1.557129	1.604796
1.557617	1.604946
1.558105	1.604535
1.558594	1.604547
1.559082	1.604892
1.559570	1.604744
1.560059	1.604736
1.560547	1.604851
1.561035	1.604722
1.561523	1.604797
1.562012	1.604974
1.562500	1.604816
1.562988	1.604966
1.563477	1.604844
1.563965	1.604852
1.564453	1.605096
1.564941	1.604896
1.565430	1.604810
1.565918	1.604914
1.566406	1.605168
1.566895	1.605087
1.567383	1.605099
1.567871	1.605012
1.568359	1.604644
1.568848	1.605242
1.569336	1.605035
1.569824	1.604824
1.570312	1.604930
1.570801	1.605002
1.571289	1.605007
1.571777	1.604957
1.572266	1.604860
1.572754	1.604857
1.573242	1.604783
1.573730	1.604952
1.574219	1.605047
1.574707	1.604879
1.575195	1.605024
1.575684	1.604979
1.576172	1.604971
1.576660	1.604951
1.577148	1.605054
1.577637	1.605297
1.578125	1.604969
1.578613	1.604956
1.579102	1.605204
1.579590	1.604757
1.580078	1.605097
1.580566	1.605079
1.581055	1.604938
1.581543	1.605012
1.582031	1.604592
1.582520	1.604631
1.583008	1.604638
1.583496	1.604890
1.583984	1.605021
1.584473	1.604769
1.584961	1.604669
1.585449	1.604765
1.585937	1.604661
1.586426	1.604821
1.586914	1.604786
1.587402	1.604755
1.587891	1.604789
1.588379	1.604742
1.588867	1.604569
1.589355	1.604375
1.589844	1.604480
1.590332	1.604543
1.590820	1.604633
1.591309	1.604525
1.591797	1.604708
1.592285	1.604602
1.592773	1.604730
1.593262	1.604486
1.593750	1.604164
1.594238	1.604494
1.594727	1.604661
1.595215	1.604470
1.595703	1.604109
1.596191	1.604503
1.596680	1.604515
1.597168	1.604505
1.597656	1.604492
1.598145	1.604304
1.598633	1.604271
1.599121	1.604477
1.599609	1.604123
1.600098	1.604313
1.600586	1.604336
1.601074	1.604101
1.601562	1.604207
1.602051	1.604299
1.602539	1.604083
1.603027	1.604046
1.603516	1.604282
1.604004	1.604334
1.604492	1.604227
1.604980	1.604237
1.605469	1.604127
1.605957	1.604266
1.606445	1.604226
1.606934	1.604420
1.607422	1.604414
1.607910	1.604367
1.608398	1.604343
1.608887	1.604243
1.609375	1.604085
1.609863	1.604354
1.610352	1.604427
1.610840	1.604331
1.611328	1.603993
1.611816	1.604479
1.612305	1.604432
1.612793	1.604337
1.613281	1.604368
1.613770	1.604394
1.614258	1.604275
1.614746	1.604210
1.615234	1.604228
1.615723	1.604307
1.616211	1.604507
1.616699	1.604909
1.617187	1.604522
1.617676	1.604665
1.618164	1.604578
1.618652	1.604672
1.619141	1.604557
1.619629	1.604582
1.620117	1.604811
1.620605	1.604769
1.621094	1.604741
1.621582	1.604669
1.622070	1.604521
1.622559	1.604577
1.623047	1.604973
1.623535	1.604829
1.624023	1.604803
1.624512	1.604705
1.625000	1.604610
1.625488	1.604536
1.625977	1.604594
1.626465	1.604998
1.626953	1.604913
1.627441	1.604890
1.627930	1.604694
1.628418	1.604841
1.628906	1.604714
1.629395	1.604442
1.629883	1.604743
1.630371	1.605159
1.630859	1.604803
1.631348	1.604718
1.631836	1.604613
1.632324	1.604769
1.632812	1.604984
1.633301	1.604873
1.633789	1.604532
1.634277	1.604758
1.634766	1.604963
1.635254	1.604717
1.635742	1.604818
1.636230	1.604777
1.636719	1.604963
1.637207	1.604735
1.637695	1.604711
1.638184	1.604504
1.638672	1.604707
1.639160	1.604934
1.639648	1.604835
1.640137	1.604885
1.640625	1.604927
1.641113	1.604727
1.641602	1.604662
1.642090	1.604683
1.642578	1.604837
1.643066	1.604716
1.643555	1.604647
1.644043	1.604556
1.644531	1.604716
1.645020	1.604614
1.645508	1.604614
1.645996	1.604647
1.646484	1.604533
1.646973	1.604582
1.647461	1.604637
1.647949	1.604439
1.648437	1.604399
1.648926	1.604545
1.649414	1.604548
1.649902	1.604595
1.650391	1.604758
1.650879	1.604543
1.651367	1.604565
1.651855	1.604585
1.652344	1.604531
1.652832	1.604660
1.653320	1.604716
1.653809	1.604521
1.654297	1.604685
1.654785	1.604541
1.655273	1.604588
1.655762	1.604526
1.656250	1.604763
1.656738	1.604462
1.657227	1.604674
1.657715	1.604744
1.658203	1.604626
1.658691	1.604913
1.659180	1.604472
1.659668	1.604592
1.660156	1.604771
1.660645	1.604809
1.661133	1.604301
1.661621	1.604520
1.662109	1.604667
1.662598	1.604697
1.663086	1.604784
1.663574	1.604469
1.664062	1.604349
1.664551	1.604631
1.665039	1.604426
1.665527	1.604667
1.666016	1.604664
1.666504	1.604683
1.666992	1.604730
1.667480	1.604417
1.667969	1.604489
1.668457	1.604415
1.668945	1.604584
1.669434	1.604696
1.669922	1.604579
1.670410	1.604706
1.670898	1.604591
1.671387	1.604685
1.671875	1.604504
1.672363	1.604641
1.672852	1.604840
1.673340	1.604836
1.673828	1.604775
1.674316	1.604781
1.674805	1.604545
1.675293	1.604613
1.675781	1.604738
1.676270	1.604786
1.676758	1.604644
1.677246	1.604876
1.677734	1.604796
1.678223	1.604561
1.678711	1.604619
1.679199	1.604685
1.679687	1.604675
1.680176	1.604519
1.680664	1.604746
1.681152	1.604608
1.681641	1.604584
1.682129	1.604371
1.682617	1.604608
1.683105	1.604602
1.683594	1.604719
1.684082	1.604622
1.684570	1.604511
1.685059	1.604310
1.685547	1.604536
1.686035	1.604643
1.686523	1.604482
1.687012	1.604295
1.687500	1.604475
1.687988	1.604504
1.688477	1.604443
1.688965	1.604497
1.689453	1.604380
1.689941	1.604258
1.690430	1.604422
1.690918	1.604243
1.691406	1.604318
1.691895	1.604459
1.692383	1.604313
1.692871	1.604430
1.693359	1.604207
1.693848	1.604498
1.694336	1.604307
1.694824	1.604423
1.695312	1.604363
1.695801	1.604389
1.696289	1.604471
1.696777	1.604401
1.697266	1.604287
1.697754	1.604185
1.698242	1.604232
1.698730	1.604384
1.699219	1.604234
1.699707	1.604010
1.700195	1.603888
1.700684	1.604021
1.701172	1.604113
1.701660	1.604059
1.702148	1.603801
1.702637	1.604066
1.703125	1.604206
1.703613	1.604106
1.704102	1.604010
1.704590	1.603935
1.705078	1.604240
1.705566	1.604020
1.706055	1.603989
1.706543	1.603975
1.707031	1.603933
1.707520	1.604096
1.708008	1.604303
1.708496	1.604175
1.708984	1.604255
1.709473	1.603978
1.709961	1.604007
1.710449	1.604094
1.710937	1.604202
1.711426	1.604295
1.711914	1.603996
1.712402	1.604069
1.712891	1.604025
1.713379	1.603745
1.713867	1.603860
1.714355	1.603955
1.714844	1.604055
1.715332	1.604014
1.715820	1.603894
1.716309	1.603896
1.716797	1.604078
1.717285	1.603992
1.717773	1.603982
1.718262	1.604161
1.718750	1.604329
1.719238	1.604232
1.719727	1.604079
1.720215	1.604207
1.720703	1.603932
1.721191	1.604270
1.721680	1.604292
1.722168	1.604006
1.722656	1.604117
1.723145	1.604191
1.723633	1.603933
1.724121	1.603988
1.724609	1.604094
1.725098	1.604182
1.725586	1.604175
1.726074	1.604262
1.726562	1.604210
1.727051	1.604184
1.727539	1.604015
1.728027	1.604314
1.728516	1.604220
1.729004	1.604221
1.729492	1.604252
1.729980	1.604279
1.730469	1.604453
1.730957	1.604339
1.731445	1.604380
1.731934	1.604203
1.732422	1.604005
1.732910	1.604041
1.733398	1.604129
1.733887	1.604385
1.734375	1.604434
1.734863	1.604418
1.735352	1.604205
1.735840	1.603809
1.736328	1.604201
1.736816	1.604235
1.737305	1.604214
1.737793	1.604080
1.738281	1.604517
1.738770	1.604508
1.739258	1.604472
1.739746	1.604358
1.740234	1.604155
1.740723	1.604357
1.741211	1.604413
1.741699	1.604364
1.742187	1.603965
1.742676	1.604200
1.743164	1.604537
1.743652	1.604360
1.744141	1.604341
1.744629	1.604266
1.745117	1.604310
1.745605	1.604218
1.746094	1.604248
1.746582	1.604461
1.747070	1.604434
1.747559	1.604302
1.748047	1.604204
1.748535	1.604155
1.749023	1.604062
1.749512	1.604210
1.750000	1.604144
1.750488	1.603877
1.750977	1.604206
1.751465	1.604114
1.751953	1.604026
1.752441	1.604042
1.752930	1.604068
1.753418	1.604077
1.753906	1.604080
1.754395	1.604113
1.754883	1.604165
1.755371	1.604178
1.755859	1.604100
1.756348	1.604554
1.756836	1.604282
1.757324	1.604167
1.757812	1.604440
1.758301	1.604283
1.758789	1.604284
1.759277	1.604281
1.759766	1.604331
1.760254	1.604332
1.760742	1.604339
1.761230	1.604412
1.761719	1.604290
1.762207	1.604391
1.762695	1.604409
1.763184	1.604298
1.763672	1.604314
1.764160	1.604155
1.764648	1.604290
1.765137	1.604252
1.765625	1.604448
1.766113	1.604202
1.766602	1.604668
1.767090	1.604443
1.767578	1.604340
1.768066	1.604271
1.768555	1.604189
1.769043	1.604404
1.769531	1.604536
1.770020	1.604408
1.770508	1.604163
1.770996	1.604334
1.771484	1.604404
1.771973	1.604577
1.772461	1.604598
1.772949	1.604609
1.773437	1.604609
1.773926	1.604512
1.774414	1.604624
1.774902	1.604830
1.775391	1.604759
1.775879	1.604713
1.776367	1.604933
1.776855	1.604542
1.777344	1.604427
1.777832	1.604905
1.778320	1.604698
1.778809	1.604609
1.779297	1.604577
1.779785	1.604509
1.780273	1.604454
1.780762	1.604407
1.781250	1.604521
1.781738	1.604602
1.782227	1.604573
1.782715	1.604799
1.783203	1.604499
1.783691	1.604559
1.784180	1.604483
1.784668	1.604678
1.785156	1.604694
1.785645	1.604436
1.786133	1.604641
1.786621	1.604472
1.787109	1.604514
1.787598	1.604815
1.788086	1.604715
1.788574	1.604447
1.789062	1.604510
1.789551	1.604755
1.790039	1.604647
1.790527	1.604604
1.791016	1.604671
1.791504	1.604806
1.791992	1.604522
1.792480	1.604267
1.792969	1.604532
1.793457	1.604492
1.793945	1.604595
1.794434	1.604513
1.794922	1.604683
1.795410	1.604509
1.795898	1.604697
1.796387	1.604636
1.796875	1.604394
1.797363	1.604506
1.797852	1.604840
1.798340	1.604509
1.798828	1.604219
1.799316	1.604732
1.799805	1.604700
1.800293	1.604589
1.800781	1.604541
1.801270	1.604195
1.801758	1.604406
1.802246	1.604493
1.802734	1.604456
1.803223	1.604647
1.803711	1.604537
1.804199	1.604515
1.804687	1.604514
1.805176	1.604367
1.805664	1.604365
1.806152	1.604635
1.806641	1.604408
1.807129	1.604354
1.807617	1.604749
1.808105	1.604481
1.808594	1.604298
1.809082	1.604334
1.809570	1.604243
1.810059	1.604202
1.810547	1.604515
1.811035	1.604248
1.811523	1.604161
1.812012	1.604018
1.812500	1.604340
1.812988	1.604345
1.813477	1.604206
1.813965	1.604281
1.814453	1.604060
1.814941	1.604541
1.815430	1.604416
1.815918	1.604414
1.816406	1.604627
1.816895	1.604483
1.817383	1.604291
1.817871	1.604360
1.818359	1.604478
1.818848	1.604698
1.819336	1.604553
1.819824	1.604325
1.820312	1.604299
1.820801	1.604184
1.821289	1.604533
1.821777	1.604742
1.822266	1.604443
1.822754	1.604611
1.823242	1.604806
1.823730	1.604671
1.824219	1.604579
1.824707	1.604652
1.825195	1.604849
1.825684	1.604666
1.826172	1.604777
1.826660	1.604629
1.827148	1.604455
1.827637	1.604802
1.828125	1.604871
1.828613	1.604847
1.829102	1.604905
1.829590	1.604788
1.830078	1.604652
1.830566	1.604745
1.831055	1.604891
1.831543	1.605011
1.832031	1.604831
1.832520	1.604766
1.833008	1.604631
1.833496	1.604586
1.833984	1.604696
1.834473	1.604807
1.834961	1.604502
1.835449	1.604406
1.835937	1.604595
1.836426	1.604735
1.836914	1.604670
1.837402	1.604578
1.837891	1.604506
1.838379	1.604666
1.838867	1.604633
1.839355	1.604649
1.839844	1.604690
1.840332	1.604633
1.840820	1.604473
1.841309	1.604630
1.841797	1.604617
1.842285	1.604580
1.842773	1.604650
1.843262	1.604724
1.843750	1.604633
1.844238	1.604566
1.844727	1.604598
1.845215	1.604573
1.845703	1.604596
1.846191	1.604602
1.846680	1.604576
1.847168	1.604547
1.847656	1.604699
1.848145	1.604520
1.848633	1.604479
1.849121	1.604518
1.849609	1.604559
1.850098	1.604481
1.850586	1.604085
1.851074	1.604389
1.851562	1.604565
1.852051	1.604227
1.852539	1.604317
1.853027	1.604238
1.853516	1.604389
1.854004	1.604284
1.854492	1.604114
1.854980	1.604079
1.855469	1.604102
1.855957	1.604449
1.856445	1.604406
1.856934	1.604384
1.857422	1.604253
1.857910	1.604453
1.858398	1.604149
1.858887	1.603890
1.859375	1.604475
1.859863	1.604640
1.860352	1.604268
1.860840	1.603924
1.861328	1.603982
1.861816	1.604229
1.862305	1.604351
1.862793	1.604291
1.863281	1.603994
1.863770	1.604219
1.864258	1.604386
1.864746	1.604252
1.865234	1.604237
1.865723	1.604269
1.866211	1.604544
1.866699	1.604080
1.867187	1.603869
1.867676	1.604010
1.868164	1.604186
1.868652	1.604425
1.869141	1.604393
1.869629	1.604276
1.870117	1.604165
1.870605	1.604309
1.871094	1.604227
1.871582	1.604140
1.872070	1.604262
1.872559	1.604470
1.873047	1.604273
1.873535	1.604159
1.874023	1.604379
1.874512	1.604440
1.875000	1.604463
1.875488	1.604329
1.875977	1.604294
1.876465	1.604184
1.876953	1.604202
1.877441	1.604176
1.877930	1.604375
1.878418	1.604235
1.878906	1.604198
1.879395	1.603959
1.879883	1.603816
1.880371	1.604238
1.880859	1.604375
1.881348	1.603939
1.881836	1.603991
1.882324	1.603856
1.882812	1.603943
1.883301	1.604209
1.883789	1.603990
1.884277	1.603924
1.884766	1.604090
1.885254	1.604162
1.885742	1.603890
1.886230	1.604065
1.886719	1.604159
1.887207	1.603978
1.887695	1.604085
1.888184	1.604002
1.888672	1.603936
1.889160	1.604020
1.889648	1.603897
1.890137	1.604080
1.890625	1.603918
1.891113	1.603888
1.891602	1.604154
1.892090	1.604113
1.892578	1.604188
1.893066	1.604081
1.893555	1.604036
1.894043	1.603988
1.894531	1.604083
1.895020	1.604027
1.895508	1.603938
1.895996	1.604068
1.896484	1.604162
1.896973	1.604198
1.897461	1.603950
1.897949	1.603716
1.898437	1.604024
1.898926	1.604000
1.899414	1.603860
1.899902	1.603725
1.900391	1.604000
1.900879	1.603945
1.901367	1.603816
1.901855	1.603919
1.902344	1.603897
1.902832	1.603868
1.903320	1.603869
1.903809	1.603958
1.904297	1.603809
1.904785	1.603666
1.905273	1.603624
1.905762	1.603880
1.906250	1.604003
1.906738	1.604072
1.907227	1.603944
1.907715	1.603897
1.908203	1.603930
1.908691	1.604200
1.909180	1.604132
1.909668	1.603773
1.910156	1.603872
1.910645	1.604291
1.911133	1.603883
1.911621	1.604076
1.912109	1.604049
1.912598	1.604010
1.913086	1.604107
1.913574	1.604063
1.914062	1.603937
1.914551	1.603873
1.915039	1.603995
1.915527	1.604085
1.916016	1.604094
1.916504	1.604159
1.916992	1.604077
1.917480	1.604109
1.917969	1.604170
1.918457	1.604156
1.918945	1.604065
1.919434	1.604080
1.919922	1.603842
1.920410	1.604217
1.920898	1.604123
1.921387	1.603855
1.921875	1.603964
1.922363	1.603938
1.922852	1.603991
1.923340	1.604108
1.923828	1.603983
1.924316	1.604024
1.924805	1.603991
1.925293	1.604045
1.925781	1.603888
1.926270	1.604112
1.926758	1.604098
1.927246	1.604223
1.927734	1.603999
1.928223	1.604062
1.928711	1.604216
1.929199	1.604051
1.929687	1.603999
1.930176	1.604077
1.930664	1.604011
1.931152	1.604156
1.931641	1.604174
1.932129	1.603983
1.932617	1.603761
1.933105	1.604005
1.933594	1.604091
1.934082	1.603989
1.934570	1.604113
1.935059	1.603914
1.935547	1.603968
1.936035	1.603982
1.936523	1.603975
1.937012	1.603838
1.937500	1.603946
1.937988	1.604047
1.938477	1.603986
1.938965	1.604111
1.939453	1.603940
1.939941	1.603932
1.940430	1.603953
1.940918	1.603991
1.941406	1.604214
1.941895	1.604202
1.942383	1.603857
1.942871	1.604025
1.943359	1.603972
1.943848	1.603971
1.944336	1.604052
1.944824	1.604138
1.945312	1.604182
1.945801	1.603793
1.946289	1.603766
1.946777	1.603952
1.947266	1.603941
1.947754	1.604016
1.948242	1.603796
1.948730	1.604035
1.949219	1.603954
1.949707	1.603775
1.950195	1.603910
1.950684	1.603969
1.951172	1.604079
1.951660	1.604132
1.952148	1.604137
1.952637	1.604227
1.953125	1.604140
1.953613	1.603979
1.954102	1.604258
1.954590	1.604338
1.955078	1.604306
1.955566	1.604276
1.956055	1.604235
1.956543	1.604199
1.957031	1.604215
1.957520	1.604149
1.958008	1.604277
1.958496	1.604319
1.958984	1.604397
1.959473	1.604102
1.959961	1.604053
1.960449	1.604016
1.960937	1.604064
1.961426	1.604304
1.961914	1.604392
1.962402	1.604141
1.962891	1.604130
1.963379	1.604055
1.963867	1.604294
1.964355	1.604058
1.964844	1.604282
1.965332	1.604308
1.965820	1.604155
1.966309	1.603869
1.966797	1.604218
1.967285	1.604266
1.967773	1.604242
1.968262	1.604443
1.968750	1.604077
1.969238	1.604139
1.969727	1.604259
1.970215	1.604404
1.970703	1.604171
1.971191	1.604110
1.971680	1.603927
1.972168	1.604206
1.972656	1.604158
1.973145	1.604221
1.973633	1.604203
1.974121	1.604138
1.974609	1.604285
1.975098	1.604130
1.975586	1.604001
1.976074	1.604084
1.976562	1.604164
1.977051	1.604102
1.977539	1.604011
1.978027	1.604154
1.978516	1.604127
1.979004	1.604035
1.979492	1.603852
1.979980	1.603788
1.980469	1.603983
1.980957	1.603925
1.981445	1.604075
1.981934	1.603795
1.982422	1.604123
1.982910	1.603791
1.983398	1.603864
1.983887	1.603626
1.984375	1.603697
1.984863	1.603748
1.985352	1.603930
1.985840	1.603813
1.986328	1.603796
1.986816	1.603901
1.987305	1.603932
1.987793	1.603903
1.988281	1.603840
1.988770	1.604132
1.989258	1.603842
1.989746	1.603665
1.990234	1.603770
1.990723	1.604022
1.991211	1.603589
1.991699	1.603503
1.992187	1.603475
1.992676	1.603415
1.993164	1.603634
1.993652	1.604070
1.994141	1.603493
1.994629	1.603534
1.995117	1.603659
1.995605	1.603936
1.996094	1.603784
1.996582	1.603695
1.997070	1.603829
1.997559	1.603715
1.998047	1.603557
1.998535	1.603622
1.999023	1.603618
1.999512	1.603501
2.000000	1.603676
2.000488	1.603443
2.000977	1.603416
2.001465	1.603462
2.001953	1.603343
2.002441	1.603346
2.002930	1.603374
2.003418	1.603653
2.003906	1.603476
2.004395	1.603504
2.004883	1.603512
2.005371	1.603490
2.005859	1.603564
2.006348	1.603413
2.006836	1.603607
2.007324	1.603816
2.007812	1.603802
2.008301	1.603925
2.008789	1.603495
2.009277	1.603373
2.009766	1.603784
2.010254	1.603561
2.010742	1.603506
2.011230	1.603585
2.011719	1.603708
2.012207	1.603525
2.012695	1.603561
2.013184	1.603758
2.013672	1.603617
2.014160	1.603839
2.014648	1.603858
2.015137	1.603670
2.015625	1.603769
2.016113	1.603629
2.016602	1.603991
2.017090	1.603964
2.017578	1.604091
2.018066	1.603961
2.018555	1.603811
2.019043	1.603766
2.019531	1.603963
2.020020	1.604066
2.020508	1.603803
2.020996	1.603600
2.021484	1.604004
2.021973	1.604138
2.022461	1.603983
2.022949	1.604028
2.023437	1.604238
2.023926	1.604091
2.024414	1.603822
2.024902	1.603816
2.025391	1.603961
2.025879	1.604185
2.026367	1.604476
2.026855	1.604157
2.027344	1.604077
2.027832	1.604187
2.028320	1.604238
2.028809	1.604101
2.029297	1.604018
2.029785	1.604207
2.030273	1.604225
2.030762	1.604003
2.031250	1.604125
2.031738	1.604061
2.032227	1.604257
2.032715	1.604342
2.033203	1.604300
2.033691	1.604205
2.034180	1.603930
2.034668	1.604053
2.035156	1.604173
2.035645	1.604220
2.036133	1.604035
2.036621	1.603966
2.037109	1.604403
2.037598	1.604203
2.038086	1.604296
2.038574	1.604172
2.039062	1.604144
2.039551	1.604185
2.040039	1.604099
2.040527	1.604257
2.041016	1.604232
2.041504	1.604094
2.041992	1.604095
2.042480	1.604126
2.042969	1.604102
2.043457	1.604468
2.043945	1.604203
2.044434	1.603966
2.044922	1.604104
2.045410	1.603968
2.045898	1.604260
2.046387	1.604245
2.046875	1.604171
2.047363	1.604170
2.047852	1.604238
2.048340	1.604068
2.048828	1.604247
2.049316	1.604358
2.049805	1.604049
2.050293	1.604148
2.050781	1.603971
2.051270	1.604040
2.051758	1.604421
2.052246	1.604289
2.052734	1.604290
2.053223	1.604039
2.053711	1.603880
2.054199	1.604177
2.054687	1.604257
2.055176	1.604193
2.055664	1.604213
2.056152	1.604442
2.056641	1.604400
2.057129	1.604350
2.057617	1.604327
2.058105	1.604525
2.058594	1.604498
2.059082	1.604337
2.059570	1.604121
2.060059	1.604368
2.060547	1.604260
2.061035	1.604329
2.061523	1.604174
2.062012	1.604032
2.062500	1.603996
2.062988	1.604257
2.063477	1.604678
2.063965	1.604476
2.064453	1.604424
2.064941	1.604333
2.065430	1.604380
2.065918	1.604356
2.066406	1.604382
2.066895	1.604768
2.067383	1.604835
2.067871	1.604423
2.068359	1.604453
2.068848	1.604786
2.069336	1.604767
2.069824	1.604716
2.070312	1.604808
2.070801	1.604514
2.071289	1.604462
2.071777	1.604623
2.072266	1.604658
2.072754	1.605088
2.073242	1.604691
2.073730	1.604777
2.074219	1.604371
2.074707	1.604634
2.075195	1.604710
2.075684	1.604788
2.076172	1.604523
2.076660	1.604515
2.077148	1.604789
2.077637	1.604653
2.078125	1.604707
2.078613	1.604655
2.079102	1.604596
2.079590	1.604650
2.080078	1.604647
2.080566	1.604649
2.081055	1.604888
2.081543	1.604588
2.082031	1.604678
2.082520	1.604636
2.083008	1.604575
2.083496	1.604576
2.083984	1.604742
2.084473	1.605073
2.084961	1.604924
2.085449	1.604669
2.085937	1.604761
2.086426	1.604768
2.086914	1.604632
2.087402	1.604643
2.087891	1.604802
2.088379	1.604783
2.088867	1.604458
2.089355	1.604523
2.089844	1.604470
2.090332	1.604711
2.090820	1.604649
2.091309	1.604636
2.091797	1.604539
2.092285	1.604528
2.092773	1.604512
2.093262	1.604736
2.093750	1.604504
2.094238	1.604378
2.094727	1.604166
2.095215	1.604625
2.095703	1.604489
2.096191	1.604605
2.096680	1.604563
2.097168	1.604433
2.097656	1.604434
2.098145	1.603979
2.098633	1.604176
2.099121	1.604382
2.099609	1.604240
2.100098	1.604104
2.100586	1.604354
2.101074	1.604285
2.101562	1.604229
2.102051	1.604389
2.102539	1.604276
2.103027	1.604299
2.103516	1.604403
2.104004	1.604251
2.104492	1.604384
2.104980	1.604317
2.105469	1.604249
2.105957	1.604237
2.106445	1.604405
2.106934	1.604182
2.107422	1.604282
2.107910	1.604379
2.108398	1.604369
2.108887	1.604370
2.109375	1.604276
2.109863	1.604212
2.110352	1.604270
2.110840	1.604254
2.111328	1.604320
2.111816	1.604434
2.112305	1.604342
2.112793	1.604340
2.113281	1.604210
2.113770	1.604169
2.114258	1.604434
2.114746	1.604442
2.115234	1.604310
2.115723	1.604304
2.116211	1.604802
2.116699	1.604529
2.117187	1.604390
2.117676	1.604534
2.118164	1.604510
2.118652	1.604586
2.119141	1.604735
2.119629	1.604395
2.120117	1.604519
2.120605	1.604476
2.121094	1.604521
2.121582	1.604698
2.122070	1.604508
2.122559	1.604904
2.123047	1.604654
2.123535	1.604825
2.124023	1.604866
2.124512	1.604875
2.125000	1.604861
2.125488	1.604690
2.125977	1.604968
2.126465	1.604966
2.126953	1.604900
2.127441	1.604937
2.127930	1.605189
2.128418	1.605117
2.128906	1.604663
2.129395	1.604614
2.129883	1.604824
2.130371	1.605097
2.130859	1.604991
2.131348	1.604711
2.131836	1.604918
2.132324	1.604837
2.132812	1.604853
2.133301	1.604806
2.133789	1.604866
2.134277	1.604916
2.134766	1.604955
2.135254	1.605014
2.135742	1.604927
2.136230	1.605054
2.136719	1.605082
2.137207	1.605143
2.137695	1.605128
2.138184	1.604940
2.138672	1.604977
2.139160	1.605133
2.139648	1.604995
2.140137	1.605220
2.140625	1.604948
2.141113	1.605002
2.141602	1.604843
2.142090	1.604822
2.142578	1.604905
2.143066	1.604841
2.143555	1.605287
2.144043	1.605005
2.144531	1.604909
2.145020	1.604860
2.145508	1.604927
2.145996	1.604924
2.146484	1.604736
2.146973	1.604989
2.147461	1.605217
2.147949	1.604865
2.148437	1.604980
2.148926	1.604868
2.149414	1.604747
2.149902	1.605051
2.150391	1.604847
2.150879	1.604726
2.151367	1.604783
2.151855	1.605043
2.152344	1.604841
2.152832	1.604801
2.153320	1.604856
2.153809	1.605015
2.154297	1.604885
2.154785	1.604811
2.155273	1.604830
2.155762	1.604731
2.156250	1.604836
2.156738	1.604969
2.157227	1.604923
2.157715	1.604948
2.158203	1.604805
2.158691	1.604955
2.159180	1.604672
2.159668	1.604962
2.160156	1.605003
2.160645	1.604814
2.161133	1.604451
2.161621	1.605045
2.162109	1.605007
2.162598	1.604876
2.163086	1.604907
2.163574	1.605002
2.164062	1.604957
2.164551	1.604524
2.165039	1.604724
2.165527	1.604957
2.166016	1.604940
2.166504	1.605084
2.166992	1.604914
2.167480	1.605016
2.167969	1.605003
2.168457	1.605066
2.168945	1.604946
2.169434	1.604860
2.169922	1.605234
2.170410	1.605162
2.170898	1.605064
2.171387	1.605015
2.171875	1.604965
2.172363	1.605168
2.172852	1.605122
2.173340	1.605188
2.173828	1.605109
2.174316	1.604995
2.174805	1.605162
2.175293	1.605283
2.175781	1.605193
2.176270	1.605207
2.176758	1.605162
2.177246	1.605426
2.177734	1.605125
2.178223	1.605306
2.178711	1.605197
2.179199	1.605069
2.179687	1.605140
2.180176	1.605081
2.180664	1.605058
2.181152	1.605002
2.181641	1.605173
2.182129	1.605186
2.182617	1.605267
2.183105	1.605299
2.183594	1.605040
2.184082	1.605156
2.184570	1.605046
2.185059	1.605312
2.185547	1.605333
2.186035	1.605315
2.186523	1.605286
2.187012	1.605243
2.187500	1.605192
2.187988	1.605401
2.188477	1.605337
2.188965	1.605068
2.189453	1.604986
2.189941	1.605347
2.190430	1.605143
2.190918	1.605226
2.191406	1.605175
2.191895	1.605251
2.192383	1.605179
2.192871	1.605002
2.193359	1.604947
2.193848	1.605105
2.194336	1.605231
2.194824	1.605036
2.195312	1.605203
2.195801	1.605094
2.196289	1.604941
2.196777	1.605034
2.197266	1.605197
2.197754	1.605124
2.198242	1.605398
2.198730	1.605090
2.199219	1.605294
2.199707	1.604912
2.200195	1.604909
2.200684	1.605336
2.201172	1.605305
2.201660	1.604992
2.202148	1.605052
2.202637	1.605003
2.203125	1.605092
2.203613	1.605062
2.204102	1.605075
2.204590	1.605015
2.205078	1.604877
2.205566	1.604944
2.206055	1.605187
2.206543	1.605270
2.207031	1.605011
2.207520	1.604993
2.208008	1.605040
2.208496	1.604858
2.208984	1.605145
2.209473	1.605292
2.209961	1.604887
2.210449	1.604757
2.210937	1.604860
2.211426	1.604924
2.211914	1.604860
2.212402	1.604899
2.212891	1.604840
2.213379	1.604856
2.213867	1.604854
2.214355	1.604680
2.214844	1.604831
2.215332	1.604876
2.215820	1.604837
2.216309	1.604938
2.216797	1.604824
2.217285	1.604654
2.217773	1.604897
2.218262	1.604969
2.218750	1.604785
2.219238	1.604802
2.219727	1.604760
2.220215	1.604962
2.220703	1.604752
2.221191	1.604595
2.221680	1.604969
2.222168	1.605207
2.222656	1.604727
2.223145	1.604785
2.223633	1.604834
2.224121	1.604952
2.224609	1.604769
2.225098	1.604721
2.225586	1.604493
2.226074	1.604899
2.226562	1.604938
2.227051	1.604770
2.227539	1.604897
2.228027	1.604912
2.228516	1.605078
2.229004	1.604754
2.229492	1.604592
2.229980	1.604746
2.230469	1.604779
2.230957	1.604797
2.231445	1.604843
2.231934	1.605032
2.232422	1.604816
2.232910	1.604664
2.233398	1.604804
2.233887	1.604765
2.234375	1.604824
2.234863	1.604945
2.235352	1.604727
2.235840	1.604865
2.236328	1.604743
2.236816	1.604796
2.237305	1.604840
2.237793	1.604841
2.238281	1.604841
2.238770	1.604735
2.239258	1.604730
2.239746	1.604701
2.240234	1.604769
2.240723	1.604703
2.241211	1.604545
2.241699	1.604719
2.242187	1.604589
2.242676	1.604564
2.243164	1.604605
2.243652	1.604326
2.244141	1.604589
2.244629	1.604390
2.245117	1.604315
2.245605	1.604278
2.246094	1.604699
2.246582	1.604633
2.247070	1.604487
2.247559	1.604530
2.248047	1.604603
2.248535	1.604533
2.249023	1.604248
2.249512	1.604319
2.250000	1.604492
2.250488	1.604489
2.250977	1.604484
2.251465	1.604270
2.251953	1.604359
2.252441	1.604646
2.252930	1.604700
2.253418	1.604494
2.253906	1.604403
2.254395	1.604517
2.254883	1.604558
2.255371	1.604508
2.255859	1.604724
2.256348	1.604611
2.256836	1.604440
2.257324	1.604333
2.257812	1.604531
2.258301	1.604453
2.258789	1.604609
2.259277	1.604417
2.259766	1.604388
2.260254	1.604539
2.260742	1.604362
2.261230	1.604425
2.261719	1.604307
2.262207	1.604135
2.262695	1.604598
2.263184	1.604614
2.263672	1.604225
2.264160	1.604299
2.264648	1.604573
2.265137	1.604537
2.265625	1.604364
2.266113	1.604440
2.266602	1.604342
2.267090	1.604354
2.267578	1.604436
2.268066	1.604664
2.268555	1.604870
2.269043	1.604574
2.269531	1.604550
2.270020	1.604257
2.270508	1.604310
2.270996	1.604559
2.271484	1.604418
2.271973	1.604303
2.272461	1.604429
2.272949	1.604703
2.273437	1.604452
2.273926	1.604416
2.274414	1.604335
2.274902	1.604550
2.275391	1.604595
2.275879	1.604656
2.276367	1.604547
2.276855	1.604515
2.277344	1.604608
2.277832	1.604674
2.278320	1.604650
2.278809	1.604749
2.279297	1.604748
2.279785	1.604508
2.280273	1.604589
2.280762	1.604720
2.281250	1.604955
2.281738	1.604833
2.282227	1.604653
2.282715	1.604885
2.283203	1.604672
2.283691	1.604774
2.284180	1.605116
2.284668	1.604973
2.285156	1.605118
2.285645	1.604571
2.286133	1.604779
2.286621	1.604982
2.287109	1.604873
2.287598	1.604805
2.288086	1.605008
2.288574	1.604913
2.289062	1.604910
2.289551	1.604797
2.290039	1.604847
2.290527	1.605076
2.291016	1.604944
2.291504	1.604976
2.291992	1.604926
2.292480	1.604899
2.292969	1.604866
2.293457	1.604941
2.293945	1.604901
2.294434	1.604937
2.294922	1.604895
2.295410	1.604899
2.295898	1.605082
2.296387	1.605204
2.296875	1.604993
2.297363	1.604763
2.297852	1.604926
2.298340	1.605078
2.298828	1.604879
2.299316	1.605122
2.299805	1.604951
2.300293	1.604699
2.300781	1.604750
2.301270	1.604946
2.301758	1.604624
2.302246	1.604772
2.302734	1.604914
2.303223	1.604604
2.303711	1.604676
2.304199	1.604766
2.304687	1.604588
2.305176	1.604632
2.305664	1.604681
2.306152	1.604716
2.306641	1.604661
2.307129	1.604430
2.307617	1.604554
2.308105	1.604580
2.308594	1.604459
2.309082	1.604613
2.309570	1.604739
2.310059	1.604578
2.310547	1.604540
2.311035	1.604539
2.311523	1.604560
2.312012	1.604715
2.312500	1.604650
2.312988	1.604651
2.313477	1.604620
2.313965	1.604615
2.314453	1.604624
2.314941	1.604570
2.315430	1.604586
2.315918	1.604921
2.316406	1.604927
2.316895	1.604670
2.317383	1.604534
2.317871	1.604614
2.318359	1.604775
2.318848	1.604785
2.319336	1.604285
2.319824	1.604597
2.320312	1.604888
2.320801	1.604564
2.321289	1.604636
2.321777	1.604600
2.322266	1.604637
2.322754	1.604692
2.323242	1.604589
2.323730	1.604536
2.324219	1.604565
2.324707	1.604544
2.325195	1.604744
2.325684	1.604682
2.326172	1.604694
2.326660	1.604536
2.327148	1.604758
2.327637	1.604658
2.328125	1.604711
2.328613	1.604685
2.329102	1.604842
2.329590	1.604664
2.330078	1.604509
2.330566	1.604517
2.331055	1.604803
2.331543	1.604297
2.332031	1.604664
2.332520	1.604661
2.333008	1.604555
2.333496	1.604423
2.333984	1.604479
2.334473	1.604531
2.334961	1.604414
2.335449	1.604612
2.335937	1.604689
2.336426	1.604697
2.336914	1.604652
2.337402	1.604628
2.337891	1.604701
2.338379	1.604400
2.338867	1.604538
2.339355	1.604986
2.339844	1.604591
2.340332	1.604325
2.340820	1.604543
2.341309	1.604627
2.341797	1.604711
2.342285	1.604705
2.342773	1.604528
2.343262	1.604514
2.343750	1.604612
2.344238	1.604491
2.344727	1.604587
2.345215	1.604761
2.345703	1.604907
2.346191	1.604595
2.346680	1.604503
2.347168	1.604570
2.347656	1.604613
2.348145	1.604678
2.348633	1.604590
2.349121	1.604833
2.349609	1.604624
2.350098	1.604411
2.350586	1.604647
2.351074	1.604490
2.351562	1.604676
2.352051	1.604677
2.352539	1.604700
2.353027	1.604515
2.353516	1.604639
2.354004	1.604695
2.354492	1.604876
2.354980	1.604714
2.355469	1.604704
2.355957	1.604611
2.356445	1.605008
2.356934	1.604910
2.357422	1.604825
2.357910	1.604755
2.358398	1.604342
2.358887	1.604544
2.359375	1.604608
2.359863	1.604440
2.360352	1.604804
2.360840	1.604656
2.361328	1.604473
2.361816	1.604582
2.362305	1.604363
2.362793	1.604509
2.363281	1.604744
2.363770	1.604541
2.364258	1.604559
2.364746	1.604445
2.365234	1.604569
2.365723	1.604645
2.366211	1.604750
2.366699	1.604298
2.367187	1.604541
2.367676	1.604678
2.368164	1.604638
2.368652	1.604808
2.369141	1.604782
2.369629	1.604730
2.370117	1.604603
2.370605	1.604416
2.371094	1.604775
2.371582	1.604796
2.372070	1.604719
2.372559	1.604785
2.373047	1.604735
2.373535	1.604602
2.374023	1.604572
2.374512	1.604622
2.375000	1.604761
2.375488	1.604804
2.375977	1.604843
2.376465	1.604660
2.376953	1.604727
2.377441	1.604630
2.377930	1.604750
2.378418	1.604993
2.378906	1.604841
2.379395	1.604639
2.379883	1.604750
2.380371	1.604653
2.380859	1.604897
2.381348	1.604908
2.381836	1.604833
2.382324	1.604733
2.382812	1.604945
2.383301	1.604796
2.383789	1.604656
2.384277	1.604785
2.384766	1.604826
2.385254	1.604870
2.385742	1.604979
2.386230	1.604862
2.386719	1.604867
2.387207	1.604887
2.387695	1.604808
2.388184	1.604900
2.388672	1.604876
2.389160	1.604813
2.389648	1.604749
2.390137	1.604830
2.390625	1.604903
2.391113	1.604876
2.391602	1.604944
2.392090	1.604925
2.392578	1.604974
2.393066	1.604622
2.393555	1.604826
2.394043	1.605065
2.394531	1.605026
2.395020	1.605098
2.395508	1.604813
2.395996	1.604697
2.396484	1.605101
2.396973	1.605037
2.397461	1.604883
2.397949	1.604705
2.398437	1.605141
2.398926	1.604991
2.399414	1.604888
2.399902	1.604815
2.400391	1.604990
2.400879	1.604957
2.401367	1.605092
2.401855	1.604832
2.402344	1.604976
2.402832	1.604937
2.403320	1.604963
2.403809	1.604971
2.404297	1.604894
2.404785	1.604794
2.405273	1.604880
2.405762	1.605074
2.406250	1.605104
2.406738	1.605145
2.407227	1.604831
2.407715	1.604845
2.408203	1.604686
2.408691	1.604573
2.409180	1.604954
2.409668	1.605099
2.410156	1.604732
2.410645	1.604974
2.411133	1.604690
2.411621	1.604824
2.412109	1.605002
2.412598	1.604954
2.413086	1.604664
2.413574	1.604859
2.414062	1.604861
2.414551	1.604714
2.415039	1.604984
2.415527	1.605071
2.416016	1.605128
2.416504	1.604843
2.416992	1.604699
2.417480	1.604851
2.417969	1.604906
2.418457	1.604972
2.418945	1.604807
2.419434	1.604975
2.419922	1.604730
2.420410	1.604835
2.420898	1.604754
2.421387	1.604788
2.421875	1.604976
2.422363	1.604846
2.422852	1.604779
2.423340	1.604764
2.423828	1.605021
2.424316	1.605141
2.424805	1.604972
2.425293	1.604939
2.425781	1.604669
2.426270	1.604798
2.426758	1.604941
2.427246	1.604910
2.427734	1.605120
2.428223	1.604755
2.428711	1.604653
2.429199	1.604885
2.429687	1.604642
2.430176	1.604845
2.430664	1.604813
2.431152	1.604589
2.431641	1.604700
2.432129	1.604842
2.432617	1.604691
2.433105	1.604492
2.433594	1.604781
2.434082	1.604779
2.434570	1.604705
2.435059	1.604949
2.435547	1.604724
2.436035	1.605076
2.436523	1.604617
2.437012	1.604716
2.437500	1.605179
2.437988	1.605031
2.438477	1.604867
2.438965	1.604890
2.439453	1.604789
2.439941	1.604851
2.440430	1.605116
2.440918	1.605062
2.441406	1.605053
2.441895	1.604946
2.442383	1.604972
2.442871	1.605089
2.443359	1.605121
2.443848	1.605125
2.444336	1.605103
2.444824	1.604891
2.445312	1.604919
2.445801	1.605135
2.446289	1.605094
2.446777	1.604948
2.447266	1.605059
2.447754	1.605164
2.448242	1.604973
2.448730	1.605006
2.449219	1.605114
2.449707	1.605000
2.450195	1.605204
2.450684	1.605052
2.451172	1.605154
2.451660	1.605264
2.452148	1.605012
2.452637	1.605078
2.453125	1.605175
2.453613	1.605121
2.454102	1.605010
2.454590	1.605006
2.455078	1.605243
2.455566	1.605066
2.456055	1.605264
2.456543	1.605348
2.457031	1.605194
2.457520	1.604906
2.458008	1.605054
2.458496	1.605341
2.458984	1.605397
2.459473	1.604940
2.459961	1.604977
2.460449	1.604818
2.460937	1.605066
2.461426	1.605200
2.461914	1.605037
2.462402	1.604885
2.462891	1.605010
2.463379	1.604914
2.463867	1.604945
2.464355	1.605067
2.464844	1.605078
2.465332	1.605083
2.465820	1.604943
2.466309	1.605016
2.466797	1.604991
2.467285	1.605004
2.467773	1.605052
2.468262	1.605211
2.468750	1.605142
2.469238	1.604835
2.469727	1.604850
2.470215	1.605261
2.470703	1.605104
2.471191	1.605146
2.471680	1.605093
2.472168	1.605083
2.472656	1.605147
2.473145	1.604952
2.473633	1.605121
2.474121	1.605351
2.474609	1.604970
2.475098	1.604897
2.475586	1.605272
2.476074	1.605353
2.476562	1.605151
2.477051	1.605090
2.477539	1.604961
2.478027	1.604942
2.478516	1.604920
2.479004	1.604858
2.479492	1.605277
2.479980	1.605175
2.480469	1.604965
2.480957	1.604984
2.481445	1.604734
2.481934	1.605076
2.482422	1.605346
2.482910	1.604911
2.483398	1.604821
2.483887	1.605228
2.484375	1.605237
2.484863	1.605131
2.485352	1.605101
2.485840	1.605355
2.486328	1.605245
2.486816	1.604826
2.487305	1.604877
2.487793	1.605031
2.488281	1.604969
2.488770	1.605150
2.489258	1.604977
2.489746	1.605125
2.490234	1.604868
2.490723	1.604960
2.491211	1.604912
2.491699	1.604912
2.492187	1.605137
2.492676	1.605065
2.493164	1.604954
2.493652	1.604991
2.494141	1.604990
2.494629	1.605074
2.495117	1.604923
2.495605	1.605186
2.496094	1.605102
2.496582	1.605132
2.497070	1.605045
2.497559	1.605197
2.498047	1.605181
2.498535	1.604941
2.499023	1.604968
2.499512	1.605248
2.500000	1.605043
2.500488	1.605021
2.500977	1.605099
2.501465	1.605217
2.501953	1.605009
2.502441	1.604768
2.502930	1.605034
2.503418	1.605081
2.503906	1.605154
2.504395	1.605088
2.504883	1.605259
2.505371	1.605201
2.505859	1.605012
2.506348	1.605222
2.506836	1.605105
2.507324	1.605106
2.507812	1.605289
2.508301	1.605111
2.508789	1.604969
2.509277	1.605051
2.509766	1.604997
2.510254	1.605259
2.510742	1.605092
2.511230	1.605201
2.511719	1.605073
2.512207	1.604909
2.512695	1.605145
2.513184	1.605157
2.513672	1.604944
2.514160	1.604993
2.514648	1.604972
2.515137	1.605029
2.515625	1.605292
2.516113	1.605232
2.516602	1.604959
2.517090	1.604898
2.517578	1.605168
2.518066	1.605222
2.518555	1.605161
2.519043	1.605239
2.519531	1.605106
2.520020	1.605214
2.520508	1.605056
2.520996	1.605136
2.521484	1.605279
2.521973	1.605264
2.522461	1.605131
2.522949	1.605265
2.523437	1.605222
2.523926	1.605195
2.524414	1.605240
2.524902	1.605046
2.525391	1.605046
2.525879	1.605251
2.526367	1.605232
2.526855	1.605054
2.527344	1.605169
2.527832	1.604943
2.528320	1.605118
2.528809	1.605344
2.529297	1.604979
2.529785	1.605057
2.530273	1.604956
2.530762	1.605104
2.531250	1.604988
2.531738	1.604859
2.532227	1.604929
2.532715	1.604780
2.533203	1.605062
2.533691	1.605033
2.534180	1.605049
2.534668	1.604982
2.535156	1.604807
2.535645	1.605004
2.536133	1.605278
2.536621	1.605071
2.537109	1.605140
2.537598	1.604940
2.538086	1.605001
2.538574	1.604575
2.539062	1.604741
2.539551	1.605070
2.540039	1.605187
2.540527	1.604897
2.541016	1.604952
2.541504	1.604773
2.541992	1.604785
2.542480	1.605156
2.542969	1.605020
2.543457	1.604998
2.543945	1.604902
2.544434	1.604944
2.544922	1.605071
2.545410	1.604982
2.545898	1.605016
2.546387	1.604846
2.546875	1.604597
2.547363	1.604869
2.547852	1.605062
2.548340	1.604880
2.548828	1.604569
2.549316	1.604946
2.549805	1.604888
2.550293	1.604855
2.550781	1.604938
2.551270	1.604968
2.551758	1.605062
2.552246	1.604850
2.552734	1.605007
2.553223	1.605135
2.553711	1.605168
2.554199	1.605184
2.554687	1.605118
2.555176	1.605138
2.555664	1.605210
2.556152	1.605178
2.556641	1.605184
2.557129	1.605164
2.557617	1.605067
2.558105	1.605098
2.558594	1.605206
2.559082	1.605153
2.559570	1.604990
2.560059	1.605052
2.560547	1.605062
2.561035	1.604974
2.561523	1.605417
2.562012	1.605226
2.562500	1.604950
2.562988	1.605112
2.563477	1.605136
2.563965	1.604999
2.564453	1.605112
2.564941	1.605146
2.565430	1.604926
2.565918	1.605399
2.566406	1.605273
2.566895	1.605392
2.567383	1.605367
2.567871	1.605173
2.568359	1.605351
2.568848	1.605473
2.569336	1.605196
2.569824	1.604973
2.570312	1.605401
2.570801	1.605276
2.571289	1.605378
2.571777	1.605352
2.572266	1.605245
2.572754	1.605276
2.573242	1.605036
2.573730	1.605115
2.574219	1.605372
2.574707	1.605398
2.575195	1.605368
2.575684	1.605447
2.576172	1.605246
2.576660	1.605295
2.577148	1.605298
2.577637	1.605132
2.578125	1.605152
2.578613	1.605383
2.579102	1.605181
2.579590	1.604996
2.580078	1.605164
2.580566	1.605361
2.581055	1.605341
2.581543	1.605325
2.582031	1.605328
2.582520	1.605308
2.583008	1.605295
2.583496	1.605332
2.583984	1.605495
2.584473	1.605290
2.584961	1.605093
2.585449	1.605179
2.585937	1.605740
2.586426	1.605751
2.586914	1.605491
2.587402	1.605402
2.587891	1.605449
2.588379	1.605449
2.588867	1.605366
2.589355	1.605508
2.589844	1.605686
2.590332	1.605420
2.590820	1.605291
2.591309	1.605341
2.591797	1.605412
2.592285	1.605677
2.592773	1.605575
2.593262	1.605312
2.593750	1.605239
2.594238	1.605215
2.594727	1.605464
2.595215	1.605567
2.595703	1.605573
2.596191	1.605305
2.596680	1.605542
2.597168	1.605500
2.597656	1.605474
2.598145	1.605635
2.598633	1.605619
2.599121	1.605434
2.599609	1.605021
2.600098	1.605324
2.600586	1.605503
2.601074	1.605430
2.601562	1.605276
2.602051	1.605495
2.602539	1.605696
2.603027	1.605413
2.603516	1.605562
2.604004	1.605571
2.604492	1.605569
2.604980	1.605363
2.605469	1.605164
2.605957	1.605578
2.606445	1.605563
2.606934	1.605379
2.607422	1.605261
2.607910	1.605585
2.608398	1.605362
2.608887	1.605381
2.609375	1.605655
2.609863	1.605394
2.610352	1.605527
2.610840	1.605276
2.611328	1.605279
2.611816	1.605364
2.612305	1.605240
2.612793	1.605374
2.613281	1.605416
2.613770	1.605298
2.614258	1.605431
2.614746	1.605366
2.615234	1.605124
2.615723	1.605353
2.616211	1.605477
2.616699	1.605309
2.617187	1.605323
2.617676	1.605352
2.618164	1.605547
2.618652	1.605178
2.619141	1.604999
2.619629	1.605029
2.620117	1.605082
2.620605	1.605381
2.621094	1.605242
2.621582	1.605237
2.622070	1.605152
2.622559	1.605032
2.623047	1.605122
2.623535	1.605222
2.624023	1.605300
2.624512	1.605105
2.625000	1.605057
2.625488	1.605037
2.625977	1.605141
2.626465	1.605180
2.626953	1.605308
2.627441	1.605334
2.627930	1.605128
2.628418	1.605017
2.628906	1.604869
2.629395	1.605090
2.629883	1.605076
2.630371	1.605042
2.630859	1.605021
2.631348	1.604963
2.631836	1.604907
2.632324	1.605071
2.632812	1.604982
2.633301	1.605027
2.633789	1.604895
2.634277	1.604860
2.634766	1.604788
2.635254	1.605045
2.635742	1.605095
2.636230	1.605012
2.636719	1.604831
2.637207	1.604696
2.637695	1.604772
2.638184	1.604871
2.638672	1.604769
2.639160	1.604683
2.639648	1.605010
2.640137	1.604590
2.640625	1.604948
2.641113	1.604725
2.641602	1.604827
2.642090	1.604680
2.642578	1.604563
2.643066	1.604681
2.643555	1.604561
2.644043	1.604667
2.644531	1.604722
2.645020	1.604765
2.645508	1.604636
2.645996	1.604605
2.646484	1.604744
2.646973	1.604572
2.647461	1.604730
2.647949	1.604809
2.648437	1.604671
2.648926	1.604490
2.649414	1.604634
2.649902	1.604609
2.650391	1.604841
2.650879	1.604725
2.651367	1.604799
2.651855	1.604800
2.652344	1.604697
2.652832	1.604736
2.653320	1.605028
2.653809	1.605058
2.654297	1.604957
2.654785	1.604882
2.655273	1.604990
2.655762	1.605110
2.656250	1.605219
2.656738	1.605140
2.657227	1.605058
2.657715	1.604982
2.658203	1.605059
2.658691	1.605276
2.659180	1.605228
2.659668	1.604804
2.660156	1.604897
2.660645	1.605130
2.661133	1.605087
2.661621	1.605122
2.662109	1.605146
2.662598	1.605121
2.663086	1.604964
2.663574	1.604887
2.664062	1.605322
2.664551	1.605214
2.665039	1.605034
2.665527	1.605059
2.666016	1.605364
2.666504	1.605242
2.666992	1.605071
2.667480	1.605159
2.667969	1.605214
2.668457	1.605278
2.668945	1.605378
2.669434	1.605124
2.669922	1.605086
2.670410	1.605338
2.670898	1.605244
2.671387	1.605465
2.671875	1.605251
2.672363	1.605410
2.672852	1.605453
2.673340	1.605279
2.673828	1.605433
2.674316	1.605226
2.674805	1.605287
2.675293	1.605175
2.675781	1.605467
2.676270	1.605226
2.676758	1.605156
2.677246	1.605545
2.677734	1.605335
2.678223	1.605334
2.678711	1.605065
2.679199	1.605265
2.679687	1.605314
2.680176	1.605283
2.680664	1.605106
2.681152	1.605145
2.681641	1.605614
2.682129	1.605334
2.682617	1.605511
2.683105	1.605320
2.683594	1.605423
2.684082	1.605279
2.684570	1.605276
2.685059	1.605211
2.685547	1.605232
2.686035	1.605634
2.686523	1.605467
2.687012	1.605374
2.687500	1.605364
2.687988	1.605362
2.688477	1.605247
2.688965	1.605171
2.689453	1.605230
2.689941	1.605383
2.690430	1.605246
2.690918	1.605269
2.691406	1.605242
2.691895	1.605036
2.692383	1.605225
2.692871	1.605131
2.693359	1.605151
2.693848	1.605215
2.694336	1.605065
2.694824	1.605066
2.695312	1.605108
2.695801	1.605172
2.696289	1.605295
2.696777	1.605214
2.697266	1.604995
2.697754	1.605120
2.698242	1.605262
2.698730	1.604996
2.699219	1.604988
2.699707	1.605148
2.700195	1.605121
2.700684	1.605142
2.701172	1.605071
2.701660	1.604982
2.702148	1.605046
2.702637	1.605200
2.703125	1.604900
2.703613	1.605026
2.704102	1.605065
2.704590	1.605150
2.705078	1.604805
2.705566	1.604784
2.706055	1.605054
2.706543	1.605049
2.707031	1.604845
2.707520	1.604940
2.708008	1.605326
2.708496	1.605146
2.708984	1.605162
2.709473	1.604897
2.709961	1.604915
2.710449	1.605189
2.710937	1.605033
2.711426	1.604871
2.711914	1.604740
2.712402	1.605113
2.712891	1.605134
2.713379	1.605101
2.713867	1.605134
2.714355	1.605109
2.714844	1.605062
2.715332	1.604824
2.715820	1.605189
2.716309	1.605672
2.716797	1.605309
2.717285	1.605331
2.717773	1.605334
2.718262	1.605099
2.718750	1.605261
2.719238	1.605214
2.719727	1.605021
2.720215	1.605040
2.720703	1.605225
2.721191	1.605128
2.721680	1.605173
2.722168	1.605246
2.722656	1.605157
2.723145	1.605191
2.723633	1.605061
2.724121	1.605040
2.724609	1.605273
2.725098	1.605036
2.725586	1.605114
2.726074	1.605107
2.726562	1.604999
2.727051	1.605074
2.727539	1.605167
2.728027	1.605215
2.728516	1.605059
2.729004	1.605099
2.729492	1.605004
2.729980	1.604908
2.730469	1.604860
2.730957	1.604994
2.731445	1.605165
2.731934	1.605269
2.732422	1.605112
2.732910	1.604962
2.733398	1.605029
2.733887	1.605324
2.734375	1.604960
2.734863	1.605097
2.735352	1.605195
2.735840	1.605020
2.736328	1.604825
2.736816	1.605074
2.737305	1.605239
2.737793	1.605034
2.738281	1.604960
2.738770	1.604929
2.739258	1.604983
2.739746	1.604893
2.740234	1.604806
2.740723	1.604962
2.741211	1.604906
2.741699	1.604768
2.742187	1.604938
2.742676	1.604992
2.743164	1.604908
2.743652	1.604846
2.744141	1.604917
2.744629	1.604944
2.745117	1.604885
2.745605	1.605065
2.746094	1.605015
2.746582	1.604877
2.747070	1.604812
2.747559	1.604917
2.748047	1.604842
2.748535	1.604948
2.749023	1.604863
2.749512	1.604846
2.750000	1.604689
2.750488	1.604846
2.750977	1.605116
2.751465	1.604907
2.751953	1.604620
2.752441	1.605076
2.752930	1.604990
2.753418	1.604796
2.753906	1.604824
2.754395	1.604927
2.754883	1.605032
2.755371	1.605025
2.755859	1.604784
2.756348	1.605103
2.756836	1.604863
2.757324	1.604885
2.757812	1.605084
2.758301	1.605029
2.758789	1.604821
2.759277	1.604941
2.759766	1.604914
2.760254	1.605035
2.760742	1.605067
2.761230	1.605023
2.761719	1.604783
2.762207	1.604863
2.762695	1.605093
2.763184	1.605161
2.763672	1.605067
2.764160	1.605031
2.764648	1.605015
2.765137	1.604904
2.765625	1.605042
2.766113	1.605312
2.766602	1.605276
2.767090	1.605081
2.767578	1.605158
2.768066	1.605079
2.768555	1.604929
2.769043	1.605334
2.769531	1.604913
2.770020	1.604863
2.770508	1.604999
2.770996	1.604927
2.771484	1.605172
2.771973	1.605107
2.772461	1.605060
2.772949	1.605046
2.773437	1.605033
2.773926	1.605098
2.774414	1.605131
2.774902	1.605176
2.775391	1.605060
2.775879	1.605114
2.776367	1.605138
2.776855	1.604988
2.777344	1.605029
2.777832	1.605321
2.778320	1.605259
2.778809	1.605376
2.779297	1.605292
2.779785	1.605150
2.780273	1.605255
2.780762	1.604923
2.781250	1.605201
2.781738	1.605674
2.782227	1.605419
2.782715	1.605128
2.783203	1.605387
2.783691	1.605512
2.784180	1.605527
2.784668	1.605516
2.785156	1.605297
2.785645	1.605171
2.786133	1.605712
2.786621	1.605370
2.787109	1.605574
2.787598	1.605395
2.788086	1.605345
2.788574	1.605433
2.789062	1.605210
2.789551	1.605143
2.790039	1.605348
2.790527	1.605078
2.791016	1.605072
2.791504	1.605175
2.791992	1.605142
2.792480	1.605124
2.792969	1.605017
2.793457	1.605382
2.793945	1.605140
2.794434	1.605081
2.794922	1.605207
2.795410	1.605163
2.795898	1.605117
2.796387	1.605175
2.796875	1.605204
2.797363	1.605214
2.797852	1.605171
2.798340	1.605123
2.798828	1.605060
2.799316	1.604805
2.799805	1.605178
2.800293	1.605251
2.800781	1.604916
2.801270	1.605007
2.801758	1.604947
2.802246	1.604941
2.802734	1.605085
2.803223	1.605040
2.803711	1.605240
2.804199	1.604774
2.804687	1.604544
2.805176	1.604645
2.805664	1.604790
2.806152	1.604968
2.806641	1.604990
2.807129	1.604959
2.807617	1.604842
2.808105	1.604683
2.808594	1.604690
2.809082	1.604663
2.809570	1.604860
2.810059	1.605131
2.810547	1.604973
2.811035	1.604751
2.811523	1.604702
2.812012	1.604853
2.812500	1.605034
2.812988	1.605021
2.813477	1.605070
2.813965	1.604892
2.814453	1.604876
2.814941	1.605067
2.815430	1.604981
2.815918	1.605258
2.816406	1.604688
2.816895	1.604851
2.817383	1.605032
2.817871	1.604982
2.818359	1.605190
2.818848	1.604935
2.819336	1.604727
2.819824	1.604847
2.820312	1.604755
2.820801	1.604787
2.821289	1.604843
2.821777	1.604699
2.822266	1.604905
2.822754	1.604991
2.823242	1.604774
2.823730	1.604768
2.824219	1.604870
2.824707	1.604786
2.825195	1.604741
2.825684	1.604793
2.826172	1.604887
2.826660	1.604784
2.827148	1.604739
2.827637	1.604847
2.828125	1.604985
2.828613	1.604922
2.829102	1.604794
2.829590	1.604840
2.830078	1.605012
2.830566	1.604894
2.831055	1.604888
2.831543	1.604755
2.832031	1.604897
2.832520	1.604852
2.833008	1.604839
2.833496	1.605047
2.833984	1.605209
2.834473	1.604885
2.834961	1.604907
2.835449	1.604805
2.835937	1.605098
2.836426	1.605088
2.836914	1.604912
2.837402	1.604555
2.837891	1.605016
2.838379	1.605007
2.838867	1.604917
2.839355	1.604802
2.839844	1.604784
2.840332	1.605046
2.840820	1.604664
2.841309	1.604589
2.841797	1.604680
2.842285	1.604879
2.842773	1.604963
2.843262	1.604840
2.843750	1.605053
2.844238	1.604887
2.844727	1.605082
2.845215	1.604944
2.845703	1.604981
2.846191	1.605060
2.846680	1.605055
2.847168	1.604887
2.847656	1.605162
2.848145	1.605120
2.848633	1.604963
2.849121	1.604948
2.849609	1.604873
2.850098	1.604981
2.850586	1.604794
2.851074	1.604910
2.851562	1.605017
2.852051	1.605011
2.852539	1.604880
2.853027	1.604949
2.853516	1.604944
2.854004	1.604837
2.854492	1.604874
2.854980	1.604948
2.855469	1.605223
2.855957	1.605093
2.856445	1.604832
2.856934	1.604844
2.857422	1.605013
2.857910	1.604832
2.858398	1.604647
2.858887	1.604980
2.859375	1.604973
2.859863	1.604714
2.860352	1.604727
2.860840	1.604697
2.861328	1.604874
2.861816	1.604887
2.862305	1.604935
2.862793	1.604844
2.863281	1.604803
2.863770	1.604826
2.864258	1.605004
2.864746	1.604868
2.865234	1.604987
2.865723	1.604786
2.866211	1.605362
2.866699	1.605356
2.867187	1.605186
2.867676	1.605187
2.868164	1.605198
2.868652	1.605212
2.869141	1.604856
2.869629	1.604854
2.870117	1.605458
2.870605	1.605310
2.871094	1.605056
2.871582	1.605059
2.872070	1.605054
2.872559	1.605136
2.873047	1.605205
2.873535	1.605247
2.874023	1.605103
2.874512	1.605040
2.875000	1.605171
2.875488	1.605414
2.875977	1.605417
2.876465	1.605211
2.876953	1.605251
2.877441	1.605230
2.877930	1.605141
2.878418	1.605502
2.878906	1.605382
2.879395	1.605294
2.879883	1.605034
2.880371	1.605240
2.880859	1.605278
2.881348	1.605496
2.881836	1.605296
2.882324	1.605436
2.882812	1.605605
2.883301	1.605509
2.883789	1.605422
2.884277	1.605549
2.884766	1.605676
2.885254	1.605447
2.885742	1.605336
2.886230	1.605493
2.886719	1.605295
2.887207	1.605590
2.887695	1.605522
2.888184	1.605750
2.888672	1.605475
2.889160	1.605517
2.889648	1.605342
2.890137	1.605190
2.890625	1.605524
2.891113	1.605843
2.891602	1.605430
2.892090	1.605372
2.892578	1.605495
2.893066	1.605496
2.893555	1.605526
2.894043	1.605632
2.894531	1.605638
2.895020	1.605509
2.895508	1.605362
2.895996	1.605617
2.896484	1.605726
2.896973	1.605655
2.897461	1.605521
2.897949	1.605491
2.898437	1.605436
2.898926	1.605528
2.899414	1.605602
2.899902	1.605489
2.900391	1.605280
2.900879	1.605287
2.901367	1.605472
2.901855	1.605504
2.902344	1.605521
2.902832	1.605301
2.903320	1.605367
2.903809	1.605314
2.904297	1.605174
2.904785	1.605424
2.905273	1.605203
2.905762	1.605267
2.906250	1.605316
2.906738	1.605229
2.907227	1.604932
2.907715	1.605125
2.908203	1.604981
2.908691	1.605073
2.909180	1.605247
2.909668	1.604842
2.910156	1.605077
2.910645	1.604977
2.911133	1.604904
2.911621	1.605226
2.912109	1.604991
2.912598	1.604892
2.913086	1.604789
2.913574	1.605079
2.914062	1.605331
2.914551	1.605039
2.915039	1.604998
2.915527	1.604723
2.916016	1.604947
2.916504	1.604896
2.916992	1.605011
2.917480	1.605378
2.917969	1.604991
2.918457	1.604836
2.918945	1.604782
2.919434	1.604705
2.919922	1.604937
2.920410	1.605021
2.920898	1.604647
2.921387	1.604903
2.921875	1.604612
2.922363	1.604773
2.922852	1.604860
2.923340	1.604854
2.923828	1.604568
2.924316	1.604640
2.924805	1.604905
2.925293	1.604748
2.925781	1.604909
2.926270	1.604976
2.926758	1.604980
2.927246	1.604591
2.927734	1.604522
2.928223	1.604628
2.928711	1.604671
2.929199	1.604927
2.929687	1.604698
2.930176	1.604789
2.930664	1.604633
2.931152	1.604674
2.931641	1.604762
2.932129	1.604659
2.932617	1.604649
2.933105	1.604921
2.933594	1.604675
2.934082	1.604689
2.934570	1.604714
2.935059	1.604739
2.935547	1.604959
2.936035	1.604815
2.936523	1.604832
2.937012	1.604660
2.937500	1.604771
2.937988	1.604865
2.938477	1.605054
2.938965	1.604749
2.939453	1.604631
2.939941	1.604706
2.940430	1.604594
2.940918	1.604774
2.941406	1.604822
2.941895	1.604415
2.942383	1.604568
2.942871	1.604796
2.943359	1.604757
2.943848	1.604674
2.944336	1.604683
2.944824	1.604846
2.945312	1.604658
2.945801	1.604748
2.946289	1.604650
2.946777	1.604598
2.947266	1.604681
2.947754	1.604536
2.948242	1.604703
2.948730	1.604681
2.949219	1.604542
2.949707	1.604775
2.950195	1.604813
2.950684	1.604662
2.951172	1.604767
2.951660	1.604562
2.952148	1.604766
2.952637	1.604411
2.953125	1.604355
2.953613	1.604662
2.954102	1.604746
2.954590	1.604537
2.955078	1.604450
2.955566	1.604732
2.956055	1.604725
2.956543	1.604662
2.957031	1.604631
2.957520	1.604539
2.958008	1.604652
2.958496	1.604619
2.958984	1.604649
2.959473	1.604731
2.959961	1.604595
2.960449	1.604652
2.960937	1.604433
2.961426	1.604472
2.961914	1.604622
2.962402	1.604484
2.962891	1.604386
2.963379	1.604629
2.963867	1.604763
2.964355	1.604515
2.964844	1.604474
2.965332	1.604584
2.965820	1.604612
2.966309	1.604635
2.966797	1.604541
2.967285	1.604648
2.967773	1.604647
2.968262	1.604489
2.968750	1.604675
2.969238	1.604634
2.969727	1.604459
2.970215	1.604467
2.970703	1.604489
2.971191	1.604799
2.971680	1.604642
2.972168	1.604818
2.972656	1.604577
2.973145	1.604772
2.973633	1.604494
2.974121	1.604448
2.974609	1.605015
2.975098	1.605148
2.975586	1.604672
2.976074	1.604737
2.976562	1.604722
2.977051	1.604800
2.977539	1.604982
2.978027	1.604846
2.978516	1.604475
2.979004	1.604852
2.979492	1.604851
2.979980	1.604869
2.980469	1.605005
2.980957	1.604971
2.981445	1.605112
2.981934	1.605067
2.982422	1.604881
2.982910	1.605118
2.983398	1.605191
2.983887	1.605153
2.984375	1.604951
2.984863	1.605275
2.985352	1.604975
2.985840	1.605018
2.986328	1.605243
2.986816	1.605101
2.987305	1.605253
2.987793	1.605206
2.988281	1.605012
2.988770	1.605143
2.989258	1.604957
2.989746	1.605119
2.990234	1.605114
2.990723	1.604994
2.991211	1.604930
2.991699	1.605091
2.992187	1.605094
2.992676	1.605189
2.993164	1.605269
2.993652	1.605207
2.994141	1.605247
2.994629	1.605025
2.995117	1.605110
2.995605	1.605655
2.996094	1.605459
2.996582	1.605154
2.997070	1.605142
2.997559	1.605217
2.998047	1.605278
2.998535	1.605330
2.999023	1.605139
2.999512	1.605029
3.000000	1.604970
3.000488	1.605054
3.000977	1.605275
3.001465	1.605392
3.001953	1.605163
3.002441	1.605106
3.002930	1.604912
3.003418	1.605015
3.003906	1.604997
3.004395	1.605082
3.004883	1.604717
3.005371	1.604885
3.005859	1.605174
3.006348	1.604822
3.006836	1.604754
3.007324	1.604821
3.007812	1.604903
3.008301	1.604838
3.008789	1.604609
3.009277	1.604532
3.009766	1.604652
3.010254	1.604700
3.010742	1.604760
3.011230	1.604653
3.011719	1.604495
3.012207	1.604448
3.012695	1.604695
3.013184	1.604951
3.013672	1.604647
3.014160	1.604694
3.014648	1.604579
3.015137	1.604647
3.015625	1.604299
3.016113	1.604437
3.016602	1.604846
3.017090	1.604578
3.017578	1.604201
3.018066	1.604389
3.018555	1.604552
3.019043	1.604526
3.019531	1.604259
3.020020	1.604204
3.020508	1.604280
3.020996	1.604085
3.021484	1.604278
3.021973	1.604529
3.022461	1.604356
3.022949	1.604115
3.023437	1.603935
3.023926	1.603952
3.024414	1.604085
3.024902	1.604332
3.025391	1.604273
3.025879	1.604206
3.026367	1.603950
3.026855	1.603773
3.027344	1.604305
3.027832	1.604231
3.028320	1.603878
3.028809	1.603843
3.029297	1.604191
3.029785	1.604179
3.030273	1.604025
3.030762	1.603968
3.031250	1.604029
3.031738	1.604070
3.032227	1.603783
3.032715	1.603900
3.033203	1.604010
3.033691	1.604165
3.034180	1.604149
3.034668	1.604087
3.035156	1.604182
3.035645	1.604023
3.036133	1.604137
3.036621	1.604346
3.037109	1.604033
3.037598	1.603879
3.038086	1.604277
3.038574	1.604386
3.039062	1.604192
3.039551	1.604262
3.040039	1.604063
3.040527	1.604061
3.041016	1.604223
3.041504	1.604335
3.041992	1.603952
3.042480	1.603796
3.042969	1.604146
3.043457	1.603969
3.043945	1.604287
3.044434	1.604364
3.044922	1.604418
3.045410	1.604083
3.045898	1.603836
3.046387	1.604221
3.046875	1.604093
3.047363	1.604179
3.047852	1.604198
3.048340	1.604342
3.048828	1.604391
3.049316	1.604187
3.049805	1.604179
3.050293	1.604034
3.050781	1.604275
3.051270	1.604428
3.051758	1.604118
3.052246	1.603819
3.052734	1.604254
3.053223	1.604558
3.053711	1.604204
3.054199	1.604256
3.054687	1.604339
3.055176	1.604180
3.055664	1.604069
3.056152	1.604222
3.056641	1.604376
3.057129	1.604399
3.057617	1.604062
3.058105	1.604188
3.058594	1.604033
3.059082	1.604123
3.059570	1.604431
3.060059	1.604274
3.060547	1.603977
3.061035	1.604112
3.061523	1.604162
3.062012	1.604141
3.062500	1.604395
3.062988	1.604242
3.063477	1.604315
3.063965	1.604559
3.064453	1.604333
3.064941	1.604362
3.065430	1.604339
3.065918	1.604515
3.066406	1.604405
3.066895	1.604071
3.067383	1.604279
3.067871	1.604219
3.068359	1.604540
3.068848	1.604597
3.069336	1.604391
3.069824	1.604282
3.070312	1.604443
3.070801	1.604350
3.071289	1.604310
3.071777	1.604575
3.072266	1.604896
3.072754	1.604456
3.073242	1.604248
3.073730	1.604606
3.074219	1.604738
3.074707	1.604642
3.075195	1.604585
3.075684	1.604315
3.076172	1.604439
3.076660	1.604649
3.077148	1.604602
3.077637	1.604766
3.078125	1.604644
3.078613	1.604706
3.079102	1.604608
3.079590	1.604475
3.080078	1.604858
3.080566	1.604948
3.081055	1.604658
3.081543	1.604569
3.082031	1.604844
3.082520	1.604677
3.083008	1.604851
3.083496	1.604716
3.083984	1.604678
3.084473	1.604688
3.084961	1.604508
3.085449	1.604670
3.085937	1.604628
3.086426	1.604939
3.086914	1.604822
3.087402	1.604917
3.087891	1.604911
3.088379	1.604927
3.088867	1.604996
3.089355	1.604580
3.089844	1.604672
3.090332	1.605231
3.090820	1.605056
3.091309	1.604620
3.091797	1.604791
3.092285	1.604941
3.092773	1.604965
3.093262	1.605028
3.093750	1.604782
3.094238	1.604643
3.094727	1.604738
3.095215	1.604696
3.095703	1.605222
3.096191	1.605251
3.096680	1.605045
3.097168	1.605067
3.097656	1.604825
3.098145	1.605044
3.098633	1.605187
3.099121	1.605042
3.099609	1.604729
3.100098	1.605093
3.100586	1.605059
3.101074	1.604990
3.101562	1.604868
3.102051	1.604730
3.102539	1.604850
3.103027	1.604876
3.103516	1.604558
3.104004	1.604754
3.104492	1.604779
3.104980	1.604771
3.105469	1.604963
3.105957	1.604955
3.106445	1.604843
3.106934	1.604671
3.107422	1.604805
3.107910	1.605013
3.108398	1.604922
3.108887	1.605001
3.109375	1.604780
3.109863	1.604678
3.110352	1.604647
3.110840	1.604825
3.111328	1.604738
3.111816	1.604743
3.112305	1.604694
3.112793	1.604707
3.113281	1.604904
3.113770	1.604711
3.114258	1.604804
3.114746	1.604729
3.115234	1.604586
3.115723	1.604655
3.116211	1.604558
3.116699	1.604826
3.117187	1.604888
3.117676	1.604551
3.118164	1.604539
3.118652	1.604384
3.119141	1.604602
3.119629	1.604550
3.120117	1.604522
3.120605	1.604515
3.121094	1.604583
3.121582	1.604499
3.122070	1.604635
3.122559	1.604697
3.123047	1.604706
3.123535	1.604705
3.124023	1.604556
3.124512	1.604499
3.125000	1.604618
3.125488	1.604569
3.125977	1.604536
3.126465	1.604586
3.126953	1.604680
3.127441	1.604501
3.127930	1.604440
3.128418	1.604641
3.128906	1.604545
3.129395	1.604610
3.129883	1.604299
3.130371	1.604514
3.130859	1.604413
3.131348	1.604317
3.131836	1.604492
3.132324	1.604439
3.132812	1.604323
3.133301	1.604219
3.133789	1.604541
3.134277	1.604603
3.134766	1.604430
3.135254	1.604490
3.135742	1.604385
3.136230	1.604540
3.136719	1.604212
3.137207	1.604290
3.137695	1.604904
3.138184	1.604735
3.138672	1.604278
3.139160	1.604331
3.139648	1.604264
3.140137	1.604585
3.140625	1.604462
3.141113	1.604325
3.141602	1.603986
3.142090	1.604356
3.142578	1.604346
3.143066	1.604386
3.143555	1.604436
3.144043	1.604656
3.144531	1.604424
3.145020	1.604149
3.145508	1.604356
3.145996	1.604643
3.146484	1.604513
3.146973	1.604306
3.147461	1.604553
3.147949	1.604670
3.148437	1.604486
3.148926	1.604617
3.149414	1.604548
3.149902	1.604609
3.150391	1.604688
3.150879	1.604407
3.151367	1.604228
3.151855	1.604510
3.152344	1.604766
3.152832	1.604625
3.153320	1.604568
3.153809	1.604455
3.154297	1.604266
3.154785	1.604478
3.155273	1.604404
3.155762	1.604738
3.156250	1.604888
3.156738	1.604758
3.157227	1.604735
3.157715	1.604445
3.158203	1.604515
3.158691	1.604839
3.159180	1.604669
3.159668	1.604366
3.160156	1.604706
3.160645	1.604696
3.161133	1.604433
3.161621	1.604449
3.162109	1.604592
3.162598	1.604654
3.163086	1.604662
3.163574	1.604647
3.164062	1.604736
3.164551	1.604809
3.165039	1.604346
3.165527	1.604696
3.166016	1.604749
3.166504	1.604717
3.166992	1.604825
3.167480	1.604649
3.167969	1.604552
3.168457	1.604892
3.168945	1.604807
3.169434	1.604491
3.169922	1.604478
3.170410	1.604875
3.170898	1.604731
3.171387	1.604634
3.171875	1.604598
3.172363	1.604660
3.172852	1.604752
3.173340	1.604572
3.173828	1.604581
3.174316	1.604409
3.174805	1.604654
3.175293	1.604817
3.175781	1.604901
3.176270	1.604819
3.176758	1.604678
3.177246	1.604730
3.177734	1.604791
3.178223	1.604877
3.178711	1.604897
3.179199	1.604857
3.179687	1.604845
3.180176	1.604973
3.180664	1.604702
3.181152	1.604962
3.181641	1.605180
3.182129	1.604901
3.182617	1.604904
3.183105	1.604915
3.183594	1.604871
3.184082	1.605146
3.184570	1.605078
3.185059	1.604806
3.185547	1.605040
3.186035	1.605182
3.186523	1.604971
3.187012	1.605186
3.187500	1.605038
3.187988	1.605168
3.188477	1.604666
3.188965	1.604731
3.189453	1.604776
3.189941	1.604847
3.190430	1.605064
3.190918	1.605021
3.191406	1.604977
3.191895	1.604905
3.192383	1.605062
3.192871	1.605063
3.193359	1.605073
3.193848	1.605027
3.194336	1.605281
3.194824	1.605000
3.195312	1.605094
3.195801	1.605144
3.196289	1.605220
3.196777	1.605226
3.197266	1.605195
3.197754	1.605016
3.198242	1.605120
3.198730	1.605118
3.199219	1.605223
3.199707	1.605278
3.200195	1.605012
3.200684	1.604786
3.201172	1.605140
3.201660	1.605303
3.202148	1.605040
3.202637	1.605048
3.203125	1.604845
3.203613	1.605009
3.204102	1.605064
3.204590	1.604775
3.205078	1.604780
3.205566	1.604788
3.206055	1.605052
3.206543	1.605123
3.207031	1.604916
3.207520	1.604916
3.208008	1.605122
3.208496	1.604915
3.208984	1.604879
3.209473	1.605032
3.209961	1.605172
3.210449	1.605215
3.210937	1.605034
3.211426	1.605004
3.211914	1.605090
3.212402	1.605022
3.212891	1.605193
3.213379	1.605174
3.213867	1.605060
3.214355	1.605110
3.214844	1.605184
3.215332	1.605193
3.215820	1.605170
3.216309	1.605222
3.216797	1.605063
3.217285	1.604942
3.217773	1.604964
3.218262	1.605078
3.218750	1.604824
3.219238	1.604816
3.219727	1.605014
3.220215	1.604868
3.220703	1.604758
3.221191	1.604791
3.221680	1.604933
3.222168	1.604907
3.222656	1.605004
3.223145	1.604891
3.223633	1.604757
3.224121	1.604575
3.224609	1.604849
3.225098	1.605380
3.225586	1.605211
3.226074	1.604689
3.226562	1.604930
3.227051	1.605247
3.227539	1.605331
3.228027	1.605169
3.228516	1.604985
3.229004	1.604879
3.229492	1.604824
3.229980	1.604864
3.230469	1.605176
3.230957	1.605135
3.231445	1.604758
3.231934	1.604693
3.232422	1.605016
3.232910	1.604761
3.233398	1.604901
3.233887	1.604775
3.234375	1.604768
3.234863	1.604932
3.235352	1.605020
3.235840	1.604843
3.236328	1.604885
3.236816	1.605128
3.237305	1.605058
3.237793	1.605037
3.238281	1.604858
3.238770	1.604810
3.239258	1.604872
3.239746	1.604463
3.240234	1.604688
3.240723	1.604768
3.241211	1.604562
3.241699	1.604510
3.242187	1.604964
3.242676	1.604985
3.243164	1.604720
3.243652	1.604716
3.244141	1.604786
3.244629	1.604816
3.245117	1.604598
3.245605	1.604781
3.246094	1.604984
3.246582	1.604798
3.247070	1.604768
3.247559	1.604697
3.248047	1.604563
3.248535	1.604770
3.249023	1.604781
3.249512	1.604494
3.250000	1.604382
3.250488	1.604757
3.250977	1.604575
3.251465	1.604542
3.251953	1.604570
3.252441	1.604559
3.252930	1.604489
3.253418	1.604507
3.253906	1.604376
3.254395	1.604437
3.254883	1.604359
3.255371	1.604417
3.255859	1.604508
3.256348	1.604306
3.256836	1.604121
3.257324	1.604207
3.257812	1.604545
3.258301	1.604448
3.258789	1.604553
3.259277	1.604256
3.259766	1.604269
3.260254	1.604444
3.260742	1.604176
3.261230	1.604522
3.261719	1.604865
3.262207	1.604496
3.262695	1.604468
3.263184	1.604556
3.263672	1.604544
3.264160	1.604614
3.264648	1.604498
3.265137	1.604234
3.265625	1.604394
3.266113	1.604566
3.266602	1.604409
3.267090	1.604339
3.267578	1.604479
3.268066	1.604595
3.268555	1.604314
3.269043	1.604079
3.269531	1.604225
3.270020	1.604269
3.270508	1.604277
3.270996	1.604239
3.271484	1.604405
3.271973	1.604240
3.272461	1.604127
3.272949	1.604256
3.273437	1.604257
3.273926	1.604193
3.274414	1.604265
3.274902	1.604210
3.275391	1.604135
3.275879	1.604433
3.276367	1.604461
3.276855	1.604370
3.277344	1.604414
3.277832	1.604398
3.278320	1.604279
3.278809	1.604181
3.279297	1.604370
3.279785	1.604440
3.280273	1.604429
3.280762	1.604220
3.281250	1.604284
3.281738	1.604250
3.282227	1.604402
3.282715	1.604433
3.283203	1.604500
3.283691	1.604236
3.284180	1.604309
3.284668	1.604481
3.285156	1.604423
3.285645	1.604497
3.286133	1.604429
3.286621	1.604465
3.287109	1.604432
3.287598	1.604302
3.288086	1.604666
3.288574	1.604621
3.289062	1.604730
3.289551	1.604502
3.290039	1.604155
3.290527	1.604619
3.291016	1.604791
3.291504	1.604450
3.291992	1.604479
3.292480	1.604655
3.292969	1.604707
3.293457	1.604466
3.293945	1.604752
3.294434	1.604838
3.294922	1.604807
3.295410	1.604797
3.295898	1.604674
3.296387	1.604771
3.296875	1.604812
3.297363	1.604988
3.297852	1.605046
3.298340	1.604865
3.298828	1.604984
3.299316	1.604938
3.299805	1.604892
3.300293	1.604984
3.300781	1.605041
3.301270	1.604858
3.301758	1.604545
3.302246	1.604871
3.302734	1.604865
3.303223	1.604962
3.303711	1.605180
3.304199	1.605002
3.304687	1.605075
3.305176	1.604807
3.305664	1.605029
3.306152	1.605341
3.306641	1.605287
3.307129	1.604819
3.307617	1.605183
3.308105	1.605449
3.308594	1.605052
3.309082	1.605160
3.309570	1.604985
3.310059	1.605003
3.310547	1.605157
3.311035	1.605060
3.311523	1.605078
3.312012	1.605225
3.312500	1.604906
3.312988	1.605076
3.313477	1.604852
3.313965	1.604897
3.314453	1.604905
3.314941	1.605078
3.315430	1.605265
3.315918	1.605067
3.316406	1.605181
3.316895	1.604885
3.317383	1.605175
3.317871	1.604980
3.318359	1.604981
3.318848	1.605168
3.319336	1.604924
3.319824	1.604786
3.320312	1.604852
3.320801	1.604926
3.321289	1.605015
3.321777	1.604866
3.322266	1.604868
3.322754	1.604975
3.323242	1.604879
3.323730	1.605035
3.324219	1.605054
3.324707	1.605106
3.325195	1.605024
3.325684	1.604985
3.326172	1.605026
3.326660	1.604959
3.327148	1.605194
3.327637	1.604939
3.328125	1.605059
3.328613	1.604810
3.329102	1.604935
3.329590	1.604910
3.330078	1.605072
3.330566	1.604731
3.331055	1.604530
3.331543	1.604907
3.332031	1.604790
3.332520	1.604969
3.333008	1.605010
3.333496	1.604999
3.333984	1.604815
3.334473	1.604346
3.334961	1.604785
3.335449	1.605048
3.335937	1.604799
3.336426	1.604646
3.336914	1.604841
3.337402	1.604993
3.337891	1.604770
3.338379	1.604874
3.338867	1.604822
3.339355	1.604611
3.339844	1.604803
3.340332	1.604722
3.340820	1.604766
3.341309	1.604814
3.341797	1.604717
3.342285	1.604860
3.342773	1.604887
3.343262	1.604672
3.343750	1.604846
3.344238	1.604920
3.344727	1.604671
3.345215	1.605075
3.345703	1.604724
3.346191	1.604825
3.346680	1.604748
3.347168	1.604812
3.347656	1.604919
3.348145	1.604681
3.348633	1.604706
3.349121	1.604742
3.349609	1.604876
3.350098	1.604904
3.350586	1.605018
3.351074	1.604896
3.351562	1.604834
3.352051	1.604972
3.352539	1.604591
3.353027	1.604955
3.353516	1.604852
3.354004	1.604740
3.354492	1.604558
3.354980	1.604816
3.355469	1.604973
3.355957	1.604998
3.356445	1.604885
3.356934	1.604724
3.357422	1.604890
3.357910	1.604667
3.358398	1.604653
3.358887	1.605157
3.359375	1.604971
3.359863	1.604539
3.360352	1.604750
3.360840	1.604863
3.361328	1.604970
3.361816	1.605001
3.362305	1.605034
3.362793	1.604651
3.363281	1.604777
3.363770	1.604723
3.364258	1.605117
3.364746	1.605241
3.365234	1.604955
3.365723	1.604869
3.366211	1.604788
3.366699	1.604811
3.367187	1.604972
3.367676	1.604930
3.368164	1.604690
3.368652	1.604843
3.369141	1.604769
3.369629	1.604857
3.370117	1.604894
3.370605	1.604781
3.371094	1.604698
3.371582	1.604525
3.372070	1.604844
3.372559	1.604642
3.373047	1.604915
3.373535	1.604700
3.374023	1.604707
3.374512	1.604739
3.375000	1.604655
3.375488	1.604897
3.375977	1.604938
3.376465	1.604676
3.376953	1.604948
3.377441	1.604860
3.377930	1.604885
3.378418	1.605121
3.378906	1.604924
3.379395	1.604936
3.379883	1.604475
3.380371	1.604783
3.380859	1.605010
3.381348	1.604921
3.381836	1.604660
3.382324	1.604893
3.382812	1.605031
3.383301	1.604871
3.383789	1.604820
3.384277	1.605021
3.384766	1.604875
3.385254	1.604935
3.385742	1.604819
3.386230	1.604753
3.386719	1.604776
3.387207	1.604860
3.387695	1.604932
3.388184	1.605102
3.388672	1.604813
3.389160	1.604710
3.389648	1.604792
3.390137	1.604851
3.390625	1.605055
3.391113	1.604915
3.391602	1.604690
3.392090	1.604798
3.392578	1.605082
3.393066	1.605114
3.393555	1.605088
3.394043	1.605074
3.394531	1.605146
3.395020	1.605261
3.395508	1.605100
3.395996	1.605283
3.396484	1.605324
3.396973	1.605280
3.397461	1.605489
3.397949	1.605196
3.398437	1.605220
3.398926	1.605111
3.399414	1.605070
3.399902	1.605220
3.400391	1.605148
3.400879	1.604735
3.401367	1.605148
3.401855	1.605495
3.402344	1.605136
3.402832	1.605003
3.403320	1.605222
3.403809	1.605392
3.404297	1.605180
3.404785	1.605034
3.405273	1.605337
3.405762	1.605328
3.406250	1.605427
3.406738	1.605315
3.407227	1.605537
3.407715	1.605431
3.408203	1.605425
3.408691	1.605553
3.409180	1.605418
3.409668	1.605557
3.410156	1.605466
3.410645	1.605560
3.411133	1.605502
3.411621	1.605405
3.412109	1.605431
3.412598	1.605558
3.413086	1.605574
3.413574	1.605378
3.414062	1.605516
3.414551	1.605521
3.415039	1.605565
3.415527	1.605594
3.416016	1.605455
3.416504	1.605470
3.416992	1.605463
3.417480	1.605712
3.417969	1.605292
3.418457	1.605354
3.418945	1.605303
3.419434	1.605333
3.419922	1.605485
3.420410	1.605444
3.420898	1.605423
3.421387	1.605408
3.421875	1.605389
3.422363	1.605354
3.422852	1.605380
3.423340	1.605234
3.423828	1.605392
3.424316	1.605220
3.424805	1.605134
3.425293	1.605672
3.425781	1.605616
3.426270	1.605414
3.426758	1.605284
3.427246	1.605200
3.427734	1.605482
3.428223	1.605302
3.428711	1.605477
3.429199	1.605335
3.429687	1.605317
3.430176	1.605291
3.430664	1.605308
3.431152	1.605256
3.431641	1.605385
3.432129	1.605148
3.432617	1.605227
3.433105	1.605272
3.433594	1.605551
3.434082	1.605320
3.434570	1.605292
3.435059	1.605178
3.435547	1.605251
3.436035	1.605242
3.436523	1.604916
3.437012	1.605330
3.437500	1.605568
3.437988	1.605099
3.438477	1.605029
3.438965	1.605079
3.439453	1.605154
3.439941	1.605271
3.440430	1.605225
3.440918	1.605081
3.441406	1.605098
3.441895	1.604997
3.442383	1.605159
3.442871	1.605475
3.443359	1.605318
3.443848	1.605233
3.444336	1.605094
3.444824	1.605171
3.445312	1.605287
3.445801	1.605370
3.446289	1.605257
3.446777	1.605202
3.447266	1.605226
3.447754	1.605289
3.448242	1.605460
3.448730	1.605199
3.449219	1.605117
3.449707	1.605117
3.450195	1.605062
3.450684	1.605180
3.451172	1.605415
3.451660	1.605134
3.452148	1.605195
3.452637	1.605129
3.453125	1.605189
3.453613	1.605262
3.454102	1.605263
3.454590	1.605235
3.455078	1.605070
3.455566	1.605170
3.456055	1.605063
3.456543	1.605235
3.457031	1.605153
3.457520	1.605057
3.458008	1.604852
3.458496	1.604879
3.458984	1.604993
3.459473	1.605035
3.459961	1.604950
3.460449	1.605042
3.460937	1.605323
3.461426	1.605059
3.461914	1.605104
3.462402	1.604974
3.462891	1.605122
3.463379	1.605148
3.463867	1.604918
3.464355	1.604861
3.464844	1.604860
3.465332	1.605218
3.465820	1.605341
3.466309	1.605262
3.466797	1.605021
3.467285	1.605159
3.467773	1.605042
3.468262	1.604856
3.468750	1.605349
3.469238	1.604977
3.469727	1.605029
3.470215	1.604971
3.470703	1.605170
3.471191	1.605270
3.471680	1.605120
3.472168	1.605031
3.472656	1.604837
3.473145	1.604771
3.473633	1.604655
3.474121	1.604996
3.474609	1.605237
3.475098	1.605092
3.475586	1.605023
3.476074	1.605209
3.476562	1.605122
3.477051	1.605174
3.477539	1.605313
3.478027	1.605152
3.478516	1.605058
3.479004	1.604985
3.479492	1.604689
3.479980	1.605295
3.480469	1.605279
3.480957	1.604821
3.481445	1.604982
3.481934	1.604832
3.482422	1.604993
3.482910	1.605071
3.483398	1.604899
3.483887	1.604789
3.484375	1.604821
3.484863	1.604777
3.485352	1.604949
3.485840	1.605037
3.486328	1.604946
3.486816	1.604830
3.487305	1.604711
3.487793	1.604781
3.488281	1.604946
3.488770	1.604816
3.489258	1.604746
3.489746	1.604747
3.490234	1.604762
3.490723	1.604699
3.491211	1.604724
3.491699	1.604514
3.492187	1.604505
3.492676	1.604811
3.493164	1.604717
3.493652	1.604636
3.494141	1.604653
3.494629	1.604737
3.495117	1.604735
3.495605	1.604734
3.496094	1.604868
3.496582	1.604856
3.497070	1.604667
3.497559	1.604779
3.498047	1.605004
3.498535	1.604800
3.499023	1.604519
3.499512	1.604730
3.500000	1.604597
3.500488	1.604588
3.500977	1.604981
3.501465	1.604823
3.501953	1.604760
3.502441	1.604490
3.502930	1.604789
3.503418	1.604764
3.503906	1.604558
3.504395	1.604460
3.504883	1.604423
3.505371	1.604847
3.505859	1.605052
3.506348	1.604818
3.506836	1.604760
3.507324	1.604834
3.507812	1.604749
3.508301	1.604570
3.508789	1.604832
3.509277	1.604938
3.509766	1.604650
3.510254	1.604522
3.510742	1.604686
3.511230	1.604912
3.511719	1.604796
3.512207	1.604785
3.512695	1.604806
3.513184	1.604787
3.513672	1.604706
3.514160	1.604641
3.514648	1.604772
3.515137	1.604714
3.515625	1.604721
3.516113	1.604619
3.516602	1.604384
3.517090	1.604772
3.517578	1.604692
3.518066	1.604704
3.518555	1.604517
3.519043	1.604916
3.519531	1.604832
3.520020	1.604704
3.520508	1.604879
3.520996	1.604888
3.521484	1.604820
3.521973	1.604689
3.522461	1.604842
3.522949	1.605060
3.523437	1.604894
3.523926	1.604973
3.524414	1.604859
3.524902	1.604850
3.525391	1.604863
3.525879	1.604901
3.526367	1.604897
3.526855	1.604725
3.527344	1.604620
3.527832	1.604792
3.528320	1.604758
3.528809	1.604672
3.529297	1.604495
3.529785	1.604669
3.530273	1.604374
3.530762	1.604541
3.531250	1.604655
3.531738	1.604331
3.532227	1.604428
3.532715	1.604411
3.533203	1.604398
3.533691	1.604364
3.534180	1.604505
3.534668	1.604158
3.535156	1.604226
3.535645	1.604328
3.536133	1.604434
3.536621	1.604415
3.537109	1.604320
3.537598	1.604295
3.538086	1.604223
3.538574	1.604216
3.539062	1.604259
3.539551	1.604160
3.540039	1.604115
3.540527	1.603953
3.541016	1.604289
3.541504	1.604221
3.541992	1.604064
3.542480	1.604199
3.542969	1.604191
3.543457	1.604136
3.543945	1.604199
3.544434	1.604245
3.544922	1.604052
3.545410	1.604022
3.545898	1.604240
3.546387	1.604208
3.546875	1.604130
3.547363	1.604077
3.547852	1.604092
3.548340	1.604325
3.548828	1.604239
3.549316	1.604304
3.549805	1.604306
3.550293	1.604330
3.550781	1.604175
3.551270	1.603963
3.551758	1.604331
3.552246	1.604505
3.552734	1.604306
3.553223	1.604266
3.553711	1.604304
3.554199	1.604245
3.554687	1.604249
3.555176	1.604461
3.555664	1.604391
3.556152	1.604562
3.556641	1.604413
3.557129	1.604461
3.557617	1.604766
3.558105	1.604513
3.558594	1.604492
3.559082	1.604392
3.559570	1.604281
3.560059	1.604484
3.560547	1.604445
3.561035	1.604213
3.561523	1.604420
3.562012	1.604518
3.562500	1.604274
3.562988	1.604301
3.563477	1.604467
3.563965	1.604382
3.564453	1.604431
3.564941	1.604346
3.565430	1.604568
3.565918	1.604573
3.566406	1.604550
3.566895	1.604630
3.567383	1.604916
3.567871	1.604797
3.568359	1.604587
3.568848	1.604460
3.569336	1.604638
3.569824	1.604636
3.570312	1.604788
3.570801	1.604614
3.571289	1.604666
3.571777	1.604519
3.572266	1.604614
3.572754	1.604741
3.573242	1.604696
3.573730	1.604793
3.574219	1.604564
3.574707	1.605008
3.575195	1.604962
3.575684	1.604887
3.576172	1.604789
3.576660	1.604661
3.577148	1.604669
3.577637	1.604589
3.578125	1.604844
3.578613	1.604927
3.579102	1.604725
3.579590	1.604600
3.580078	1.604707
3.580566	1.604566
3.581055	1.604832
3.581543	1.604756
3.582031	1.604718
3.582520	1.604523
3.583008	1.604660
3.583496	1.604676
3.583984	1.604678
3.584473	1.604660
3.584961	1.604540
3.585449	1.604629
3.585937	1.604699
3.586426	1.604684
3.586914	1.604755
3.587402	1.604553
3.587891	1.604667
3.588379	1.604545
3.588867	1.604639
3.589355	1.604325
3.589844	1.604636
3.590332	1.604863
3.590820	1.604883
3.591309	1.604919
3.591797	1.604725
3.592285	1.604800
3.592773	1.604587
3.593262	1.604797
3.593750	1.604805
3.594238	1.604860
3.594727	1.604517
3.595215	1.604642
3.595703	1.604921
3.596191	1.604914
3.596680	1.604774
3.597168	1.604823
3.597656	1.604791
3.598145	1.604656
3.598633	1.604758
3.599121	1.604783
3.599609	1.604797
3.600098	1.604693
3.600586	1.604590
3.601074	1.604506
3.601562	1.604509
3.602051	1.604913
3.602539	1.604770
3.603027	1.604595
3.603516	1.604598
3.604004	1.604712
3.604492	1.604822
3.604980	1.604742
3.605469	1.604709
3.605957	1.604452
3.606445	1.604820
3.606934	1.604653
3.607422	1.604822
3.607910	1.604844
3.608398	1.604885
3.608887	1.604949
3.609375	1.604275
3.609863	1.604528
3.610352	1.604505
3.610840	1.604813
3.611328	1.604889
3.611816	1.604871
3.612305	1.604888
3.612793	1.604761
3.613281	1.604840
3.613770	1.604661
3.614258	1.604661
3.614746	1.605057
3.615234	1.605054
3.615723	1.604657
3.616211	1.604960
3.616699	1.604830
3.617187	1.605000
3.617676	1.604949
3.618164	1.604955
3.618652	1.604962
3.619141	1.604674
3.619629	1.604865
3.620117	1.604912
3.620605	1.604947
3.621094	1.604619
3.621582	1.604743
3.622070	1.605175
3.622559	1.604803
3.623047	1.604793
3.623535	1.604971
3.624023	1.605093
3.624512	1.604852
3.625000	1.604543
3.625488	1.604708
3.625977	1.604749
3.626465	1.605002
3.626953	1.604891
3.627441	1.604857
3.627930	1.604736
3.628418	1.604828
3.628906	1.604841
3.629395	1.604562
3.629883	1.604733
3.630371	1.604928
3.630859	1.604689
3.631348	1.604781
3.631836	1.604728
3.632324	1.604440
3.632812	1.604706
3.633301	1.604616
3.633789	1.604526
3.634277	1.604489
3.634766	1.604702
3.635254	1.604631
3.635742	1.604458
3.636230	1.604697
3.636719	1.604443
3.637207	1.604613
3.637695	1.604705
3.638184	1.604526
3.638672	1.604616
3.639160	1.604223
3.639648	1.604364
3.640137	1.604637
3.640625	1.604602
3.641113	1.604343
3.641602	1.604348
3.642090	1.604641
3.642578	1.604611
3.643066	1.604580
3.643555	1.604674
3.644043	1.604299
3.644531	1.604438
3.645020	1.604357
3.645508	1.604467
3.645996	1.604609
3.646484	1.604500
3.646973	1.604482
3.647461	1.604151
3.647949	1.604266
3.648437	1.604426
3.648926	1.604469
3.649414	1.604320
3.649902	1.604492
3.650391	1.604643
3.650879	1.604335
3.651367	1.604403
3.651855	1.604608
3.652344	1.604495
3.652832	1.604569
3.653320	1.604508
3.653809	1.604306
3.654297	1.604447
3.654785	1.604456
3.655273	1.604550
3.655762	1.604743
3.656250	1.604623
3.656738	1.604542
3.657227	1.604533
3.657715	1.604522
3.658203	1.604684
3.658691	1.604764
3.659180	1.604546
3.659668	1.604328
3.660156	1.604766
3.660645	1.604804
3.661133	1.604637
3.661621	1.604613
3.662109	1.604652
3.662598	1.604836
3.663086	1.604412
3.663574	1.604586
3.664062	1.604533
3.664551	1.604639
3.665039	1.604915
3.665527	1.604824
3.666016	1.604854
3.666504	1.604813
3.666992	1.604862
3.667480	1.604921
3.667969	1.604752
3.668457	1.604827
3.668945	1.604917
3.669434	1.604814
3.669922	1.604713
3.670410	1.604674
3.670898	1.604613
3.671387	1.604702
3.671875	1.604750
3.672363	1.604518
3.672852	1.604791
3.673340	1.604632
3.673828	1.604627
3.674316	1.604550
3.674805	1.604676
3.675293	1.604687
3.675781	1.604893
3.676270	1.604813
3.676758	1.604649
3.677246	1.604739
3.677734	1.604650
3.678223	1.604955
3.678711	1.604785
3.679199	1.604797
3.679687	1.604804
3.680176	1.604587
3.680664	1.604636
3.681152	1.604866
3.681641	1.604917
3.682129	1.604620
3.682617	1.604495
3.683105	1.604544
3.683594	1.604681
3.684082	1.604637
3.684570	1.604416
3.685059	1.604282
3.685547	1.604453
3.686035	1.604484
3.686523	1.604494
3.687012	1.604788
3.687500	1.604469
3.687988	1.604578
3.688477	1.604245
3.688965	1.604298
3.689453	1.604485
3.689941	1.604450
3.690430	1.604357
3.690918	1.604425
3.691406	1.604525
3.691895	1.604386
3.692383	1.604485
3.692871	1.604323
3.693359	1.604478
3.693848	1.604254
3.694336	1.604278
3.694824	1.604100
3.695312	1.604325
3.695801	1.604708
3.696289	1.604409
3.696777	1.604312
3.697266	1.604299
3.697754	1.604366
3.698242	1.604290
3.698730	1.604074
3.699219	1.604391
3.699707	1.604586
3.700195	1.604484
3.700684	1.604329
3.701172	1.604245
3.701660	1.604138
3.702148	1.604436
3.702637	1.604374
3.703125	1.604141
3.703613	1.604123
3.704102	1.604345
3.704590	1.604202
3.705078	1.604128
3.705566	1.604122
3.706055	1.604195
3.706543	1.604287
3.707031	1.604370
3.707520	1.604265
3.708008	1.604279
3.708496	1.604062
3.708984	1.604213
3.709473	1.604233
3.709961	1.604204
3.710449	1.604306
3.710937	1.604193
3.711426	1.604439
3.711914	1.604258
3.712402	1.604337
3.712891	1.604303
3.713379	1.604242
3.713867	1.604123
3.714355	1.604161
3.714844	1.604286
3.715332	1.604342
3.715820	1.604311
3.716309	1.604382
3.716797	1.604134
3.717285	1.604079
3.717773	1.604418
3.718262	1.604180
3.718750	1.604031
3.719238	1.604123
3.719727	1.604151
3.720215	1.604046
3.720703	1.604155
3.721191	1.604152
3.721680	1.604209
3.722168	1.604387
3.722656	1.604159
3.723145	1.604159
3.723633	1.604290
3.724121	1.604279
3.724609	1.604420
3.725098	1.604307
3.725586	1.604295
3.726074	1.604353
3.726562	1.604244
3.727051	1.604495
3.727539	1.604646
3.728027	1.604800
3.728516	1.604479
3.729004	1.604431
3.729492	1.604332
3.729980	1.604386
3.730469	1.604505
3.730957	1.604422
3.731445	1.604295
3.731934	1.604120
3.732422	1.603967
3.732910	1.604290
3.733398	1.604361
3.733887	1.604058
3.734375	1.603996
3.734863	1.604186
3.735352	1.604236
3.735840	1.604173
3.736328	1.604167
3.736816	1.604056
3.737305	1.604164
3.737793	1.604292
3.738281	1.604049
3.738770	1.604282
3.739258	1.603983
3.739746	1.603987
3.740234	1.604082
3.740723	1.604022
3.741211	1.603918
3.741699	1.603877
3.742187	1.604185
3.742676	1.604148
3.743164	1.603954
3.743652	1.604119
3.744141	1.603946
3.744629	1.604172
3.745117	1.604030
3.745605	1.604098
3.746094	1.604354
3.746582	1.603989
3.747070	1.603996
3.747559	1.604085
3.748047	1.603991
3.748535	1.604119
3.749023	1.604219
3.749512	1.603919
3.750000	1.604022
3.750488	1.604237
3.750977	1.604213
3.751465	1.604253
3.751953	1.603988
3.752441	1.603993
3.752930	1.603956
3.753418	1.603966
3.753906	1.604023
3.754395	1.604140
3.754883	1.604085
3.755371	1.604134
3.755859	1.604219
3.756348	1.604136
3.756836	1.604245
3.757324	1.604090
3.757812	1.604099
3.758301	1.604367
3.758789	1.604397
3.759277	1.604058
3.759766	1.604231
3.760254	1.604047
3.760742	1.604201
3.761230	1.604397
3.761719	1.604279
3.762207	1.604150
3.762695	1.604252
3.763184	1.604265
3.763672	1.604479
3.764160	1.604324
3.764648	1.604412
3.765137	1.604475
3.765625	1.604355
3.766113	1.604433
3.766602	1.604439
3.767090	1.604390
3.767578	1.604448
3.768066	1.604424
3.768555	1.604116
3.769043	1.604029
3.769531	1.604498
3.770020	1.604401
3.770508	1.604131
3.770996	1.604206
3.771484	1.604203
3.771973	1.604380
3.772461	1.604314
3.772949	1.604287
3.773437	1.604068
3.773926	1.604294
3.774414	1.604293
3.774902	1.604494
3.775391	1.604465
3.775879	1.604593
3.776367	1.604522
3.776855	1.604456
3.777344	1.604396
3.777832	1.604541
3.778320	1.604358
3.778809	1.604326
3.779297	1.604234
3.779785	1.604317
3.780273	1.604213
3.780762	1.604055
3.781250	1.604479
3.781738	1.604398
3.782227	1.604568
3.782715	1.604473
3.783203	1.604375
3.783691	1.604412
3.784180	1.604110
3.784668	1.604274
3.785156	1.604598
3.785645	1.604423
3.786133	1.604478
3.786621	1.604306
3.787109	1.604032
3.787598	1.604369
3.788086	1.604401
3.788574	1.604124
3.789062	1.604146
3.789551	1.604347
3.790039	1.604226
3.790527	1.603949
3.791016	1.604205
3.791504	1.604215
3.791992	1.604181
3.792480	1.604093
3.792969	1.604058
3.793457	1.604258
3.793945	1.603943
3.794434	1.604062
3.794922	1.603914
3.795410	1.604121
3.795898	1.604199
3.796387	1.604070
3.796875	1.604043
3.797363	1.604123
3.797852	1.604012
3.798340	1.604149
3.798828	1.604181
3.799316	1.604040
3.799805	1.603891
3.800293	1.603718
3.800781	1.603667
3.801270	1.603888
3.801758	1.603716
3.802246	1.603922
3.802734	1.603919
3.803223	1.604021
3.803711	1.603936
3.804199	1.603760
3.804687	1.603597
3.805176	1.603678
3.805664	1.603883
3.806152	1.604062
3.806641	1.603606
3.807129	1.603482
3.807617	1.603953
3.808105	1.603828
3.808594	1.603820
3.809082	1.603703
3.809570	1.603708
3.810059	1.603673
3.810547	1.603599
3.811035	1.603767
3.811523	1.603779
3.812012	1.603695
3.812500	1.603617
3.812988	1.603633
3.813477	1.603501
3.813965	1.603605
3.814453	1.603767
3.814941	1.603811
3.815430	1.603875
3.815918	1.603490
3.816406	1.603489
3.816895	1.603740
3.817383	1.603723
3.817871	1.603506
3.818359	1.603520
3.818848	1.603511
3.819336	1.603515
3.819824	1.603676
3.820312	1.603648
3.820801	1.603546
3.821289	1.603901
3.821777	1.603712
3.822266	1.603822
3.822754	1.603925
3.823242	1.603837
3.823730	1.603902
3.824219	1.603676
3.824707	1.603954
3.825195	1.603674
3.825684	1.604086
3.826172	1.604213
3.826660	1.604138
3.827148	1.604256
3.827637	1.603992
3.828125	1.604173
3.828613	1.603983
3.829102	1.603924
3.829590	1.604401
3.830078	1.604464
3.830566	1.603728
3.831055	1.604007
3.831543	1.604109
3.832031	1.604291
3.832520	1.604301
3.833008	1.604018
3.833496	1.603830
3.833984	1.604143
3.834473	1.604069
3.834961	1.604295
3.835449	1.604254
3.835937	1.604278
3.836426	1.604282
3.836914	1.604373
3.837402	1.604149
3.837891	1.604550
3.838379	1.604292
3.838867	1.604076
3.839355	1.604235
3.839844	1.604233
3.840332	1.604310
3.840820	1.604497
3.841309	1.604303
3.841797	1.604291
3.842285	1.604450
3.842773	1.604262
3.843262	1.604358
3.843750	1.604354
3.844238	1.604403
3.844727	1.604353
3.845215	1.604079
3.845703	1.604191
3.846191	1.604423
3.846680	1.604398
3.847168	1.604424
3.847656	1.604511
3.848145	1.604592
3.848633	1.604467
3.849121	1.604265
3.849609	1.604354
3.850098	1.604575
3.850586	1.604580
3.851074	1.604461
3.851562	1.604434
3.852051	1.604333
3.852539	1.604475
3.853027	1.604757
3.853516	1.604440
3.854004	1.604668
3.854492	1.604404
3.854980	1.604523
3.855469	1.604646
3.855957	1.604816
3.856445	1.604583
3.856934	1.604565
3.857422	1.604607
3.857910	1.604345
3.858398	1.604516
3.858887	1.604699
3.859375	1.604498
3.859863	1.604283
3.860352	1.604281
3.860840	1.604376
3.861328	1.604713
3.861816	1.604536
3.862305	1.604483
3.862793	1.604431
3.863281	1.604332
3.863770	1.604369
3.864258	1.604573
3.864746	1.604521
3.865234	1.604233
3.865723	1.604411
3.866211	1.604386
3.866699	1.604332
3.867187	1.604660
3.867676	1.604472
3.868164	1.604409
3.868652	1.603957
3.869141	1.603896
3.869629	1.604474
3.870117	1.604307
3.870605	1.603920
3.871094	1.604210
3.871582	1.604359
3.872070	1.604143
3.872559	1.604055
3.873047	1.604285
3.873535	1.604479
3.874023	1.603855
3.874512	1.604234
3.875000	1.604336
3.875488	1.604490
3.875977	1.604271
3.876465	1.604138
3.876953	1.604492
3.877441	1.604416
3.877930	1.604492
3.878418	1.604338
3.878906	1.604407
3.879395	1.604201
3.879883	1.604177
3.880371	1.604191
3.880859	1.604423
3.881348	1.604284
3.881836	1.604252
3.882324	1.604405
3.882812	1.604318
3.883301	1.604248
3.883789	1.604349
3.884277	1.604372
3.884766	1.604317
3.885254	1.604548
3.885742	1.604368
3.886230	1.604632
3.886719	1.604184
3.887207	1.604381
3.887695	1.604257
3.888184	1.604196
3.888672	1.604361
3.889160	1.604159
3.889648	1.604397
3.890137	1.604459
3.890625	1.604545
3.891113	1.604473
3.891602	1.604272
3.892090	1.604287
3.892578	1.604276
3.893066	1.604371
3.893555	1.604390
3.894043	1.604143
3.894531	1.604093
3.895020	1.604519
3.895508	1.604426
3.895996	1.604427
3.896484	1.604213
3.896973	1.604456
3.897461	1.604334
3.897949	1.603930
3.898437	1.604180
3.898926	1.604511
3.899414	1.604210
3.899902	1.604133
3.900391	1.604157
3.900879	1.604217
3.901367	1.604281
3.901855	1.604407
3.902344	1.604208
3.902832	1.604220
3.903320	1.604218
3.903809	1.604135
3.904297	1.604276
3.904785	1.604278
3.905273	1.604391
3.905762	1.604361
3.906250	1.604068
3.906738	1.604106
3.907227	1.604263
3.907715	1.604307
3.908203	1.603971
3.908691	1.604484
3.909180	1.604231
3.909668	1.604176
3.910156	1.604137
3.910645	1.603996
3.911133	1.604225
3.911621	1.604363
3.912109	1.604096
3.912598	1.603912
3.913086	1.604174
3.913574	1.604358
3.914062	1.604203
3.914551	1.604248
3.915039	1.604106
3.915527	1.604166
3.916016	1.604162
3.916504	1.604052
3.916992	1.604453
3.917480	1.604319
3.917969	1.604076
3.918457	1.604153
3.918945	1.604093
3.919434	1.604332
3.919922	1.604426
3.920410	1.604378
3.920898	1.604165
3.921387	1.604300
3.921875	1.604370
3.922363	1.604549
3.922852	1.604469
3.923340	1.604292
3.923828	1.604316
3.924316	1.604262
3.924805	1.604526
3.925293	1.604305
3.925781	1.604563
3.926270	1.604484
3.926758	1.604498
3.927246	1.604383
3.927734	1.604665
3.928223	1.604727
3.928711	1.604763
3.929199	1.604713
3.929687	1.604187
3.930176	1.604696
3.930664	1.605162
3.931152	1.604924
3.931641	1.604653
3.932129	1.604682
3.932617	1.604650
3.933105	1.604930
3.933594	1.605043
3.934082	1.604846
3.934570	1.604794
3.935059	1.604977
3.935547	1.604851
3.936035	1.604985
3.936523	1.605004
3.937012	1.605087
3.937500	1.605065
3.937988	1.605143
3.938477	1.604992
3.938965	1.605159
3.939453	1.605090
3.939941	1.604877
3.940430	1.605104
3.940918	1.605054
3.941406	1.604839
3.941895	1.604771
3.942383	1.605256
3.942871	1.605122
3.943359	1.605048
3.943848	1.604977
3.944336	1.604840
3.944824	1.604822
3.945312	1.604827
3.945801	1.605183
3.946289	1.605241
3.946777	1.604875
3.947266	1.604902
3.947754	1.604862
3.948242	1.604984
3.948730	1.604999
3.949219	1.604980
3.949707	1.604913
3.950195	1.604916
3.950684	1.604749
3.951172	1.604935
3.951660	1.605181
3.952148	1.605053
3.952637	1.604916
3.953125	1.604819
3.953613	1.604753
3.954102	1.604830
3.954590	1.604984
3.955078	1.604809
3.955566	1.604677
3.956055	1.604808
3.956543	1.604653
3.957031	1.604736
3.957520	1.604770
3.958008	1.604517
3.958496	1.604649
3.958984	1.604523
3.959473	1.604300
3.959961	1.604650
3.960449	1.604376
3.960937	1.604560
3.961426	1.604219
3.961914	1.603974
3.962402	1.604407
3.962891	1.604412
3.963379	1.604434
3.963867	1.604384
3.964355	1.604297
3.964844	1.604273
3.965332	1.604109
3.965820	1.604415
3.966309	1.604317
3.966797	1.604283
3.967285	1.604324
3.967773	1.604085
3.968262	1.604032
3.968750	1.604456
3.969238	1.604426
3.969727	1.604340
3.970215	1.604135
3.970703	1.604093
3.971191	1.604232
3.971680	1.604227
3.972168	1.604298
3.972656	1.604305
3.973145	1.604313
3.973633	1.604168
3.974121	1.604144
3.974609	1.604227
3.975098	1.604356
3.975586	1.604367
3.976074	1.604194
3.976562	1.604074
3.977051	1.604144
3.977539	1.604257
3.978027	1.604307
3.978516	1.604196
3.979004	1.604104
3.979492	1.604189
3.979980	1.604193
3.980469	1.604212
3.980957	1.604388
3.981445	1.604165
3.981934	1.604059
3.982422	1.604211
3.982910	1.604237
3.983398	1.604159
3.983887	1.604209
3.984375	1.604372
3.984863	1.604251
3.985352	1.604370
3.985840	1.604410
3.986328	1.604346
3.986816	1.604250
3.987305	1.604308
3.987793	1.604417
3.988281	1.604285
3.988770	1.604346
3.989258	1.604231
3.989746	1.604517
3.990234	1.604527
3.990723	1.604533
3.991211	1.604409
3.991699	1.604412
3.992187	1.604352
3.992676	1.604423
3.993164	1.604500
3.993652	1.604700
3.994141	1.604395
3.994629	1.604461
3.995117	1.604545
3.995605	1.604570
3.996094	1.604775
3.996582	1.604606
3.997070	1.604414
3.997559	1.604566
3.998047	1.604375
3.998535	1.604596
3.999023	1.604688
3.999512	1.604542
4.000000	1.604442
4.000488	1.604547
4.000977	1.604408
4.001465	1.604487
4.001953	1.604752
4.002441	1.604464
4.002930	1.604495
4.003418	1.604116
4.003906	1.604298
4.004395	1.604489
4.004883	1.604518
4.005371	1.604324
4.005859	1.604532
4.006348	1.604725
4.006836	1.604545
4.007324	1.604747
4.007812	1.604433
4.008301	1.604606
4.008789	1.604453
4.009277	1.604464
4.009766	1.604209
4.010254	1.604371
4.010742	1.604672
4.011230	1.604492
4.011719	1.604618
4.012207	1.604488
4.012695	1.604502
4.013184	1.604543
4.013672	1.604404
4.014160	1.604522
4.014648	1.604722
4.015137	1.604566
4.015625	1.604775
4.016113	1.604617
4.016602	1.604480
4.017090	1.604661
4.017578	1.604846
4.018066	1.604343
4.018555	1.604724
4.019043	1.604728
4.019531	1.604561
4.020020	1.604915
4.020508	1.604793
4.020996	1.604874
4.021484	1.604828
4.021973	1.604776
4.022461	1.604868
4.022949	1.604935
4.023437	1.604811
4.023926	1.604788
4.024414	1.604921
4.024902	1.604764
4.025391	1.604707
4.025879	1.604904
4.026367	1.604823
4.026855	1.604866
4.027344	1.604896
4.027832	1.604786
4.028320	1.604566
4.028809	1.604622
4.029297	1.604673
4.029785	1.604802
4.030273	1.604756
4.030762	1.604731
4.031250	1.604583
4.031738	1.604641
4.032227	1.604730
4.032715	1.604838
4.033203	1.604771
4.033691	1.604774
4.034180	1.604744
4.034668	1.604706
4.035156	1.604924
4.035645	1.604996
4.036133	1.605023
4.036621	1.604890
4.037109	1.604833
4.037598	1.604943
4.038086	1.605013
4.038574	1.605083
4.039062	1.604648
4.039551	1.604838
4.040039	1.604932
4.040527	1.604843
4.041016	1.605187
4.041504	1.604961
4.041992	1.605223
4.042480	1.604813
4.042969	1.604681
4.043457	1.604775
4.043945	1.604791
4.044434	1.604807
4.044922	1.604789
4.045410	1.604678
4.045898	1.604706
4.046387	1.604672
4.046875	1.604777
4.047363	1.604649
4.047852	1.604887
4.048340	1.604791
4.048828	1.604797
4.049316	1.604639
4.049805	1.604573
4.050293	1.604759
4.050781	1.604987
4.051270	1.604848
4.051758	1.604473
4.052246	1.604907
4.052734	1.605054
4.053223	1.604712
4.053711	1.604598
4.054199	1.604852
4.054687	1.604723
4.055176	1.604531
4.055664	1.604850
4.056152	1.604785
4.056641	1.604621
4.057129	1.604516
4.057617	1.604584
4.058105	1.604357
4.058594	1.604561
4.059082	1.604401
4.059570	1.604299
4.060059	1.604243
4.060547	1.604418
4.061035	1.604440
4.061523	1.604304
4.062012	1.604431
4.062500	1.604328
4.062988	1.604325
4.063477	1.604137
4.063965	1.604226
4.064453	1.604386
4.064941	1.604500
4.065430	1.604471
4.065918	1.604411
4.066406	1.603985
4.066895	1.604309
4.067383	1.604636
4.067871	1.604393
4.068359	1.604259
4.068848	1.604373
4.069336	1.604216
4.069824	1.604106
4.070312	1.604314
4.070801	1.604345
4.071289	1.604072
4.071777	1.604127
4.072266	1.604363
4.072754	1.604156
4.073242	1.604285
4.073730	1.604328
4.074219	1.604202
4.074707	1.604182
4.075195	1.604292
4.075684	1.604437
4.076172	1.604134
4.076660	1.604262
4.077148	1.604389
4.077637	1.604293
4.078125	1.604219
4.078613	1.604184
4.079102	1.604486
4.079590	1.604160
4.080078	1.603986
4.080566	1.604143
4.081055	1.604237
4.081543	1.604162
4.082031	1.604058
4.082520	1.604375
4.083008	1.604129
4.083496	1.604217
4.083984	1.604090
4.084473	1.604148
4.084961	1.604364
4.085449	1.604180
4.085937	1.604273
4.086426	1.604074
4.086914	1.604337
4.087402	1.604425
4.087891	1.604310
4.088379	1.604303
4.088867	1.604267
4.089355	1.604304
4.089844	1.604091
4.090332	1.604180
4.090820	1.604433
4.091309	1.604435
4.091797	1.604368
4.092285	1.604395
4.092773	1.604382
4.093262	1.604469
4.093750	1.604561
4.094238	1.604431
4.094727	1.604243
4.095215	1.604565
4.095703	1.604683
4.096191	1.604588
4.096680	1.604503
4.097168	1.604664
4.097656	1.604598
4.098145	1.604243
4.098633	1.604462
4.099121	1.604892
4.099609	1.604566
4.100098	1.604572
4.100586	1.604550
4.101074	1.604442
4.101562	1.604714
4.102051	1.604572
4.102539	1.604472
4.103027	1.604483
4.103516	1.604857
4.104004	1.604578
4.104492	1.604387
4.104980	1.604619
4.105469	1.604864
4.105957	1.604638
4.106445	1.604260
4.106934	1.604348
4.107422	1.604316
4.107910	1.604509
4.108398	1.604609
4.108887	1.604678
4.109375	1.604596
4.109863	1.604530
4.110352	1.604547
4.110840	1.604343
4.111328	1.604494
4.111816	1.604898
4.112305	1.604426
4.112793	1.604406
4.113281	1.604689
4.113770	1.604775
4.114258	1.604700
4.114746	1.604805
4.115234	1.604722
4.115723	1.604705
4.116211	1.604582
4.116699	1.604469
4.117187	1.605051
4.117676	1.605112
4.118164	1.604797
4.118652	1.604780
4.119141	1.604657
4.119629	1.604755
4.120117	1.605074
4.120605	1.604739
4.121094	1.604769
4.121582	1.604751
4.122070	1.604934
4.122559	1.604751
4.123047	1.604824
4.123535	1.604700
4.124023	1.604613
4.124512	1.604979
4.125000	1.604716
4.125488	1.604889
4.125977	1.604963
4.126465	1.604814
4.126953	1.604873
4.127441	1.604805
4.127930	1.604786
4.128418	1.604890
4.128906	1.604948
4.129395	1.604963
4.129883	1.604939
4.130371	1.604949
4.130859	1.604952
4.131348	1.604901
4.131836	1.604633
4.132324	1.604825
4.132812	1.604939
4.133301	1.604924
4.133789	1.604954
4.134277	1.604858
4.134766	1.604709
4.135254	1.604890
4.135742	1.605003
4.136230	1.604931
4.136719	1.605015
4.137207	1.605329
4.137695	1.605004
4.138184	1.605193
4.138672	1.605162
4.139160	1.605096
4.139648	1.605024
4.140137	1.605140
4.140625	1.605138
4.141113	1.605298
4.141602	1.605156
4.142090	1.605044
4.142578	1.604888
4.143066	1.605108
4.143555	1.605203
4.144043	1.605228
4.144531	1.604730
4.145020	1.604963
4.145508	1.605274
4.145996	1.605048
4.146484	1.604984
4.146973	1.604824
4.147461	1.605121
4.147949	1.604821
4.148437	1.604722
4.148926	1.604974
4.149414	1.604824
4.149902	1.605154
4.150391	1.605042
4.150879	1.605008
4.151367	1.604855
4.151855	1.604974
4.152344	1.604925
4.152832	1.604885
4.153320	1.604932
4.153809	1.605010
4.154297	1.604942
4.154785	1.604883
4.155273	1.604818
4.155762	1.604854
4.156250	1.604861
4.156738	1.604729
4.157227	1.604756
4.157715	1.604775
4.158203	1.604691
4.158691	1.604660
4.159180	1.604674
4.159668	1.604517
4.160156	1.604479
4.160645	1.604910
4.161133	1.604830
4.161621	1.604625
4.162109	1.604588
4.162598	1.604512
4.163086	1.604547
4.163574	1.604479
4.164062	1.604614
4.164551	1.604461
4.165039	1.604575
4.165527	1.604411
4.166016	1.604631
4.166504	1.604552
4.166992	1.604486
4.167480	1.604544
4.167969	1.604612
4.168457	1.604704
4.168945	1.604556
4.169434	1.604688
4.169922	1.604334
4.170410	1.604427
4.170898	1.604537
4.171387	1.604589
4.171875	1.604902
4.172363	1.604924
4.172852	1.604757
4.173340	1.604723
4.173828	1.604523
4.174316	1.604668
4.174805	1.604845
4.175293	1.604584
4.175781	1.604600
4.176270	1.604702
4.176758	1.604650
4.177246	1.604448
4.177734	1.604557
4.178223	1.604575
4.178711	1.604630
4.179199	1.604538
4.179687	1.604312
4.180176	1.604511
4.180664	1.604494
4.181152	1.604650
4.181641	1.604669
4.182129	1.604619
4.182617	1.604406
4.183105	1.604641
4.183594	1.604692
4.184082	1.604583
4.184570	1.604667
4.185059	1.604622
4.185547	1.604454
4.186035	1.604530
4.186523	1.604444
4.187012	1.604677
4.187500	1.604479
4.187988	1.604631
4.188477	1.604527
4.188965	1.604472
4.189453	1.604601
4.189941	1.604777
4.190430	1.604735
4.190918	1.604460
4.191406	1.604500
4.191895	1.604511
4.192383	1.604665
4.192871	1.604701
4.193359	1.604764
4.193848	1.604704
4.194336	1.604548
4.194824	1.604692
4.195312	1.604844
4.195801	1.604993
4.196289	1.604667
4.196777	1.604624
4.197266	1.604984
4.197754	1.604763
4.198242	1.604835
4.198730	1.604719
4.199219	1.604691
4.199707	1.604681
4.200195	1.604546
4.200684	1.604697
4.201172	1.604696
4.201660	1.604629
4.202148	1.604594
4.202637	1.604699
4.203125	1.604645
4.203613	1.604735
4.204102	1.604734
4.204590	1.604739
4.205078	1.604774
4.205566	1.604861
4.206055	1.604702
4.206543	1.604812
4.207031	1.604714
4.207520	1.604858
4.208008	1.604692
4.208496	1.604525
4.208984	1.604603
4.209473	1.604490
4.209961	1.604852
4.210449	1.604638
4.210937	1.604779
4.211426	1.604606
4.211914	1.604673
4.212402	1.604546
4.212891	1.604490
4.213379	1.604746
4.213867	1.604827
4.214355	1.604678
4.214844	1.604425
4.215332	1.604607
4.215820	1.604836
4.216309	1.604796
4.216797	1.604654
4.217285	1.604835
4.217773	1.604596
4.218262	1.604581
4.218750	1.604767
4.219238	1.604934
4.219727	1.604814
4.220215	1.604578
4.220703	1.604725
4.221191	1.604604
4.221680	1.604764
4.222168	1.604877
4.222656	1.604768
4.223145	1.604943
4.223633	1.604412
4.224121	1.604367
4.224609	1.604835
4.225098	1.604663
4.225586	1.604503
4.226074	1.604681
4.226562	1.604675
4.227051	1.604450
4.227539	1.604650
4.228027	1.604754
4.228516	1.604483
4.229004	1.604655
4.229492	1.604456
4.229980	1.604598
4.230469	1.604700
4.230957	1.604497
4.231445	1.604557
4.231934	1.604191
4.232422	1.604345
4.232910	1.604643
4.233398	1.604525
4.233887	1.604426
4.234375	1.604562
4.234863	1.604655
4.235352	1.604509
4.235840	1.604746
4.236328	1.604662
4.236816	1.604594
4.237305	1.604682
4.237793	1.604631
4.238281	1.604624
4.238770	1.604700
4.239258	1.604611
4.239746	1.604842
4.240234	1.604701
4.240723	1.604699
4.241211	1.604677
4.241699	1.604908
4.242187	1.604982
4.242676	1.604742
4.243164	1.604832
4.243652	1.604609
4.244141	1.604604
4.244629	1.604650
4.245117	1.604701
4.245605	1.605012
4.246094	1.604959
4.246582	1.604766
4.247070	1.604616
4.247559	1.604416
4.248047	1.604922
4.248535	1.604847
4.249023	1.604605
4.249512	1.604562
4.250000	1.605203
4.250488	1.604897
4.250977	1.604953
4.251465	1.604893
4.251953	1.604629
4.252441	1.604941
4.252930	1.605019
4.253418	1.604803
4.253906	1.604893
4.254395	1.605067
4.254883	1.604829
4.255371	1.604902
4.255859	1.604888
4.256348	1.605110
4.256836	1.605260
4.257324	1.604991
4.257812	1.604959
4.258301	1.604719
4.258789	1.604986
4.259277	1.605088
4.259766	1.604879
4.260254	1.604569
4.260742	1.604955
4.261230	1.605023
4.261719	1.604977
4.262207	1.605018
4.262695	1.604880
4.263184	1.604944
4.263672	1.604714
4.264160	1.604669
4.264648	1.604720
4.265137	1.604985
4.265625	1.604930
4.266113	1.604971
4.266602	1.605043
4.267090	1.604939
4.267578	1.604703
4.268066	1.604865
4.268555	1.604847
4.269043	1.604954
4.269531	1.604652
4.270020	1.604663
4.270508	1.604828
4.270996	1.604657
4.271484	1.604757
4.271973	1.604653
4.272461	1.604483
4.272949	1.604512
4.273437	1.604725
4.273926	1.604949
4.274414	1.604614
4.274902	1.604584
4.275391	1.604491
4.275879	1.604744
4.276367	1.604378
4.276855	1.604331
4.277344	1.604903
4.277832	1.604742
4.278320	1.604163
4.278809	1.604304
4.279297	1.604316
4.279785	1.604508
4.280273	1.604428
4.280762	1.604402
4.281250	1.604327
4.281738	1.604294
4.282227	1.604167
4.282715	1.604663
4.283203	1.604697
4.283691	1.604356
4.284180	1.604203
4.284668	1.604231
4.285156	1.604348
4.285645	1.604630
4.286133	1.604265
4.286621	1.604218
4.287109	1.604140
4.287598	1.604327
4.288086	1.604404
4.288574	1.604455
4.289062	1.604168
4.289551	1.604029
4.290039	1.604418
4.290527	1.604249
4.291016	1.604266
4.291504	1.604253
4.291992	1.604375
4.292480	1.604131
4.292969	1.603905
4.293457	1.603985
4.293945	1.604057
4.294434	1.604131
4.294922	1.604125
4.295410	1.604096
4.295898	1.604163
4.296387	1.604075
4.296875	1.604028
4.297363	1.604128
4.297852	1.604014
4.298340	1.604209
4.298828	1.604063
4.299316	1.603950
4.299805	1.604018
4.300293	1.604018
4.300781	1.604174
4.301270	1.603923
4.301758	1.604143
4.302246	1.604146
4.302734	1.604139
4.303223	1.604295
4.303711	1.604265
4.304199	1.604428
4.304687	1.604214
4.305176	1.604153
4.305664	1.604267
4.306152	1.604257
4.306641	1.604262
4.307129	1.604356
4.307617	1.604251
4.308105	1.604116
4.308594	1.604105
4.309082	1.604298
4.309570	1.604420
4.310059	1.604118
4.310547	1.603907
4.311035	1.604482
4.311523	1.604152
4.312012	1.604251
4.312500	1.604047
4.312988	1.604280
4.313477	1.604176
4.313965	1.604154
4.314453	1.604043
4.314941	1.604011
4.315430	1.604366
4.315918	1.604511
4.316406	1.604137
4.316895	1.604118
4.317383	1.604335
4.317871	1.604348
4.318359	1.604392
4.318848	1.604176
4.319336	1.604263
4.319824	1.604315
4.320312	1.604278
4.320801	1.604230
4.321289	1.604326
4.321777	1.604301
4.322266	1.604316
4.322754	1.604226
4.323242	1.604318
4.323730	1.604242
4.324219	1.604233
4.324707	1.604448
4.325195	1.604118
4.325684	1.604488
4.326172	1.604262
4.326660	1.604302
4.327148	1.604242
4.327637	1.604011
4.328125	1.604157
4.328613	1.604130
4.329102	1.604284
4.329590	1.604319
4.330078	1.604451
4.330566	1.604228
4.331055	1.603977
4.331543	1.604293
4.332031	1.604240
4.332520	1.604246
4.333008	1.604528
4.333496	1.604320
4.333984	1.604279
4.334473	1.604382
4.334961	1.604636
4.335449	1.604624
4.335937	1.604537
4.336426	1.604558
4.336914	1.604519
4.337402	1.604441
4.337891	1.604547
4.338379	1.604777
4.338867	1.604616
4.339355	1.604361
4.339844	1.604449
4.340332	1.604358
4.340820	1.604583
4.341309	1.604760
4.341797	1.604405
4.342285	1.604269
4.342773	1.604776
4.343262	1.604614
4.343750	1.604560
4.344238	1.604536
4.344727	1.604515
4.345215	1.604522
4.345703	1.604597
4.346191	1.604509
4.346680	1.604465
4.347168	1.604586
4.347656	1.604475
4.348145	1.604657
4.348633	1.604471
4.349121	1.604559
4.349609	1.604511
4.350098	1.604610
4.350586	1.604645
4.351074	1.604680
4.351562	1.604859
4.352051	1.604675
4.352539	1.604757
4.353027	1.604694
4.353516	1.604860
4.354004	1.605095
4.354492	1.604888
4.354980	1.605098
4.355469	1.604706
4.355957	1.604653
4.356445	1.604915
4.356934	1.604695
4.357422	1.604657
4.357910	1.604700
4.358398	1.604992
4.358887	1.604746
4.359375	1.604728
4.359863	1.604587
4.360352	1.604387
4.360840	1.604769
4.361328	1.604861
4.361816	1.604577
4.362305	1.604472
4.362793	1.604688
4.363281	1.604648
4.363770	1.604638
4.364258	1.604724
4.364746	1.604684
4.365234	1.604692
4.365723	1.604790
4.366211	1.604857
4.366699	1.604825
4.367187	1.604770
4.367676	1.604523
4.368164	1.604866
4.368652	1.604684
4.369141	1.604618
4.369629	1.604805
4.370117	1.604583
4.370605	1.604744
4.371094	1.604397
4.371582	1.604373
4.372070	1.604254
4.372559	1.604440
4.373047	1.604768
4.373535	1.604445
4.374023	1.604458
4.374512	1.604231
4.375000	1.604508
4.375488	1.604272
4.375977	1.604286
4.376465	1.604508
4.376953	1.604709
4.377441	1.604234
4.377930	1.604341
4.378418	1.604375
4.378906	1.604267
4.379395	1.604475
4.379883	1.604497
4.380371	1.604269
4.380859	1.604165
4.381348	1.603925
4.381836	1.604418
4.382324	1.604371
4.382812	1.603999
4.383301	1.603939
4.383789	1.604307
4.384277	1.604278
4.384766	1.604276
4.385254	1.604271
4.385742	1.604228
4.386230	1.604284
4.386719	1.604243
4.387207	1.604232
4.387695	1.604134
4.388184	1.604299
4.388672	1.604032
4.389160	1.604121
4.389648	1.604414
4.390137	1.604328
4.390625	1.604434
4.391113	1.604166
4.391602	1.604299
4.392090	1.604013
4.392578	1.603977
4.393066	1.604148
4.393555	1.604039
4.394043	1.604471
4.394531	1.604036
4.395020	1.604135
4.395508	1.604225
4.395996	1.604326
4.396484	1.604191
4.396973	1.604113
4.397461	1.604423
4.397949	1.604631
4.398437	1.604337
4.398926	1.604393
4.399414	1.604118
4.399902	1.604353
4.400391	1.604429
4.400879	1.604505
4.401367	1.603988
4.401855	1.604407
4.402344	1.604409
4.402832	1.604348
4.403320	1.604487
4.403809	1.604519
4.404297	1.604522
4.404785	1.604182
4.405273	1.604403
4.405762	1.604417
4.406250	1.604392
4.406738	1.604206
4.407227	1.604378
4.407715	1.604800
4.408203	1.604418
4.408691	1.604590
4.409180	1.604258
4.409668	1.604459
4.410156	1.604576
4.410645	1.604476
4.411133	1.604276
4.411621	1.604479
4.412109	1.604791
4.412598	1.604656
4.413086	1.604633
4.413574	1.604443
4.414062	1.604332
4.414551	1.604537
4.415039	1.604334
4.415527	1.604523
4.416016	1.604825
4.416504	1.604423
4.416992	1.604756
4.417480	1.604407
4.417969	1.604322
4.418457	1.604517
4.418945	1.604492
4.419434	1.604351
4.419922	1.604509
4.420410	1.604868
4.420898	1.604501
4.421387	1.604417
4.421875	1.604663
4.422363	1.604634
4.422852	1.604634
4.423340	1.604556
4.423828	1.604439
4.424316	1.604583
4.424805	1.604492
4.425293	1.604799
4.425781	1.604612
4.426270	1.604566
4.426758	1.604370
4.427246	1.604631
4.427734	1.604734
4.428223	1.604651
4.428711	1.604625
4.429199	1.604359
4.429687	1.604443
4.430176	1.604329
4.430664	1.604408
4.431152	1.604919
4.431641	1.604998
4.432129	1.604579
4.432617	1.604624
4.433105	1.604362
4.433594	1.604464
4.434082	1.604816
4.434570	1.604617
4.435059	1.604439
4.435547	1.604691
4.436035	1.604727
4.436523	1.604494
4.437012	1.604606
4.437500	1.604708
4.437988	1.604520
4.438477	1.604656
4.438965	1.604696
4.439453	1.604644
4.439941	1.604652
4.440430	1.604478
4.440918	1.604716
4.441406	1.605212
4.441895	1.604528
4.442383	1.604453
4.442871	1.604774
4.443359	1.604859
4.443848	1.604691
4.444336	1.604622
4.444824	1.604549
4.445312	1.604555
4.445801	1.604713
4.446289	1.604656
4.446777	1.604865
4.447266	1.604766
4.447754	1.604627
4.448242	1.604854
4.448730	1.604766
4.449219	1.604672
4.449707	1.604821
4.450195	1.604583
4.450684	1.604679
4.451172	1.604668
4.451660	1.604532
4.452148	1.604495
4.452637	1.604649
4.453125	1.604899
4.453613	1.604715
4.454102	1.604885
4.454590	1.604736
4.455078	1.604951
4.455566	1.604760
4.456055	1.604598
4.456543	1.604937
4.457031	1.605448
4.457520	1.604868
4.458008	1.604849
4.458496	1.604753
4.458984	1.604879
4.459473	1.604998
4.459961	1.605030
4.460449	1.604845
4.460937	1.604858
4.461426	1.604755
4.461914	1.604853
4.462402	1.604969
4.462891	1.604877
4.463379	1.604788
4.463867	1.604899
4.464355	1.604678
4.464844	1.604865
4.465332	1.604895
4.465820	1.604980
4.466309	1.604879
4.466797	1.604925
4.467285	1.604861
4.467773	1.604761
4.468262	1.604910
4.468750	1.604883
4.469238	1.604824
4.469727	1.604844
4.470215	1.604626
4.470703	1.604735
4.471191	1.604555
4.471680	1.604761
4.472168	1.604697
4.472656	1.604660
4.473145	1.604675
4.473633	1.604487
4.474121	1.604991
4.474609	1.604733
4.475098	1.604718
4.475586	1.604591
4.476074	1.604463
4.476562	1.604509
4.477051	1.604452
4.477539	1.604700
4.478027	1.604925
4.478516	1.604660
4.479004	1.604473
4.479492	1.604242
4.479980	1.604279
4.480469	1.604666
4.480957	1.604655
4.481445	1.604393
4.481934	1.604609
4.482422	1.604606
4.482910	1.604613
4.483398	1.604637
4.483887	1.604663
4.484375	1.604760
4.484863	1.604671
4.485352	1.604561
4.485840	1.604584
4.486328	1.604561
4.486816	1.604889
4.487305	1.604639
4.487793	1.604591
4.488281	1.604611
4.488770	1.604652
4.489258	1.604592
4.489746	1.604320
4.490234	1.604873
4.490723	1.604968
4.491211	1.604674
4.491699	1.604627
4.492187	1.604677
4.492676	1.604796
4.493164	1.604600
4.493652	1.604692
4.494141	1.604229
4.494629	1.604503
4.495117	1.604638
4.495605	1.604554
4.496094	1.604542
4.496582	1.604474
4.497070	1.604526
4.497559	1.604590
4.498047	1.604527
4.498535	1.604546
4.499023	1.604525
4.499512	1.604367
4.500000	1.604553
4.500488	1.604641
4.500977	1.604589
4.501465	1.604521
4.501953	1.604648
4.502441	1.604985
4.502930	1.604734
4.503418	1.604792
4.503906	1.604669
4.504395	1.604357
4.504883	1.604775
4.505371	1.604747
4.505859	1.604966
4.506348	1.605079
4.506836	1.604857
4.507324	1.605032
4.507812	1.604497
4.508301	1.604742
4.508789	1.604845
4.509277	1.604792
4.509766	1.604646
4.510254	1.604866
4.510742	1.604767
4.511230	1.604620
4.511719	1.604744
4.512207	1.605081
4.512695	1.605072
4.513184	1.604951
4.513672	1.604951
4.514160	1.604972
4.514648	1.604930
4.515137	1.604836
4.515625	1.605081
4.516113	1.605307
4.516602	1.605005
4.517090	1.604912
4.517578	1.604819
4.518066	1.604869
4.518555	1.605098
4.519043	1.605116
4.519531	1.604645
4.520020	1.604814
4.520508	1.605021
4.520996	1.604921
4.521484	1.604973
4.521973	1.604949
4.522461	1.604799
4.522949	1.604903
4.523437	1.604847
4.523926	1.604692
4.524414	1.604872
4.524902	1.604736
4.525391	1.604595
4.525879	1.604876
4.526367	1.604663
4.526855	1.604510
4.527344	1.604678
4.527832	1.604705
4.528320	1.604713
4.528809	1.604797
4.529297	1.604687
4.529785	1.604777
4.530273	1.604653
4.530762	1.604518
4.531250	1.605023
4.531738	1.605062
4.532227	1.604574
4.532715	1.604791
4.533203	1.604623
4.533691	1.604696
4.534180	1.604791
4.534668	1.604906
4.535156	1.604749
4.535645	1.604964
4.536133	1.605052
4.536621	1.604862
4.537109	1.604786
4.537598	1.604713
4.538086	1.604969
4.538574	1.604784
4.539062	1.604694
4.539551	1.604492
4.540039	1.604650
4.540527	1.604744
4.541016	1.604672
4.541504	1.604724
4.541992	1.604672
4.542480	1.604981
4.542969	1.604536
4.543457	1.604689
4.543945	1.604799
4.544434	1.604857
4.544922	1.604742
4.545410	1.604727
4.545898	1.604789
4.546387	1.604941
4.546875	1.604962
4.547363	1.604960
4.547852	1.604813
4.548340	1.604680
4.548828	1.604719
4.549316	1.604832
4.549805	1.605056
4.550293	1.604674
4.550781	1.604429
4.551270	1.605070
4.551758	1.604894
4.552246	1.604801
4.552734	1.604757
4.553223	1.604940
4.553711	1.604902
4.554199	1.604500
4.554687	1.604501
4.555176	1.604675
4.555664	1.604865
4.556152	1.604983
4.556641	1.604724
4.557129	1.604763
4.557617	1.604681
4.558105	1.604766
4.558594	1.604663
4.559082	1.604755
4.559570	1.604989
4.560059	1.604938
4.560547	1.604682
4.561035	1.604788
4.561523	1.604728
4.562012	1.604837
4.562500	1.604810
4.562988	1.604872
4.563477	1.604581
4.563965	1.604829
4.564453	1.604723
4.564941	1.604847
4.565430	1.604954
4.565918	1.605035
4.566406	1.604849
4.566895	1.604334
4.567383	1.604669
4.567871	1.604835
4.568359	1.604862
4.568848	1.604764
4.569336	1.604675
4.569824	1.604888
4.570312	1.604727
4.570801	1.604761
4.571289	1.604511
4.571777	1.604401
4.572266	1.604636
4.572754	1.604766
4.573242	1.604595
4.573730	1.604659
4.574219	1.604567
4.574707	1.604789
4.575195	1.604684
4.575684	1.604840
4.576172	1.604817
4.576660	1.604670
4.577148	1.605029
4.577637	1.604999
4.578125	1.604796
4.578613	1.604722
4.579102	1.604699
4.579590	1.604569
4.580078	1.604718
4.580566	1.605118
4.581055	1.604895
4.581543	1.604522
4.582031	1.604843
4.582520	1.605110
4.583008	1.604895
4.583496	1.604840
4.583984	1.604796
4.584473	1.604660
4.584961	1.605031
4.585449	1.604877
4.585937	1.605084
4.586426	1.604973
4.586914	1.604797
4.587402	1.604963
4.587891	1.605007
4.588379	1.604954
4.588867	1.604926
4.589355	1.604824
4.589844	1.604815
4.590332	1.604973
4.590820	1.605027
4.591309	1.604833
4.591797	1.604977
4.592285	1.604897
4.592773	1.604877
4.593262	1.604943
4.593750	1.605085
4.594238	1.604982
4.594727	1.604909
4.595215	1.604870
4.595703	1.605110
4.596191	1.605112
4.596680	1.605093
4.597168	1.605156
4.597656	1.604896
4.598145	1.605033
4.598633	1.605210
4.599121	1.605186
4.599609	1.604971
4.600098	1.605026
4.600586	1.605156
4.601074	1.604992
4.601562	1.605182
4.602051	1.605114
4.602539	1.605174
4.603027	1.605218
4.603516	1.605058
4.604004	1.604992
4.604492	1.605029
4.604980	1.605126
4.605469	1.605267
4.605957	1.605295
4.606445	1.605153
4.606934	1.605008
4.607422	1.605021
4.607910	1.604988
4.608398	1.605242
4.608887	1.604967
4.609375	1.604904
4.609863	1.605072
4.610352	1.605067
4.610840	1.605232
4.611328	1.605283
4.611816	1.605213
4.612305	1.604948
4.612793	1.604954
4.613281	1.605366
4.613770	1.605070
4.614258	1.605106
4.614746	1.605203
4.615234	1.605022
4.615723	1.605211
4.616211	1.604953
4.616699	1.604752
4.617187	1.604836
4.617676	1.605220
4.618164	1.605267
4.618652	1.605124
4.619141	1.604972
4.619629	1.604968
4.620117	1.605131
4.620605	1.604732
4.621094	1.604852
4.621582	1.605217
4.622070	1.605027
4.622559	1.604791
4.623047	1.604836
4.623535	1.604710
4.624023	1.604805
4.624512	1.604721
4.625000	1.604606
4.625488	1.604498
4.625977	1.604926
4.626465	1.604671
4.626953	1.604691
4.627441	1.604583
4.627930	1.604531
4.628418	1.604554
4.628906	1.604357
4.629395	1.604353
4.629883	1.604351
4.630371	1.604439
4.630859	1.604408
4.631348	1.604513
4.631836	1.604356
4.632324	1.604366
4.632812	1.604394
4.633301	1.604295
4.633789	1.604420
4.634277	1.604415
4.634766	1.604368
4.635254	1.604246
4.635742	1.604403
4.636230	1.604271
4.636719	1.604373
4.637207	1.604538
4.637695	1.604420
4.638184	1.604362
4.638672	1.604145
4.639160	1.604112
4.639648	1.604239
4.640137	1.604368
4.640625	1.604071
4.641113	1.603927
4.641602	1.604439
4.642090	1.604162
4.642578	1.604176
4.643066	1.604190
4.643555	1.604218
4.644043	1.604219
4.644531	1.603768
4.645020	1.603987
4.645508	1.604068
4.645996	1.604441
4.646484	1.604366
4.646973	1.604299
4.647461	1.604175
4.647949	1.604155
4.648437	1.604340
4.648926	1.603919
4.649414	1.604074
4.649902	1.604416
4.650391	1.604238
4.650879	1.604201
4.651367	1.604297
4.651855	1.604108
4.652344	1.604237
4.652832	1.604301
4.653320	1.604217
4.653809	1.604135
4.654297	1.604304
4.654785	1.604304
4.655273	1.604306
4.655762	1.604486
4.656250	1.604246
4.656738	1.604254
4.657227	1.604613
4.657715	1.604596
4.658203	1.604529
4.658691	1.604298
4.659180	1.604292
4.659668	1.604491
4.660156	1.604388
4.660645	1.604226
4.661133	1.604270
4.661621	1.604672
4.662109	1.604473
4.662598	1.604389
4.663086	1.604559
4.663574	1.604557
4.664062	1.604567
4.664551	1.604412
4.665039	1.604703
4.665527	1.605123
4.666016	1.605037
4.666504	1.604714
4.666992	1.604960
4.667480	1.604729
4.667969	1.604966
4.668457	1.604903
4.668945	1.604689
4.669434	1.604669
4.669922	1.604760
4.670410	1.604720
4.670898	1.604755
4.671387	1.604751
4.671875	1.604654
4.672363	1.604977
4.672852	1.604899
4.673340	1.604789
4.673828	1.604858
4.674316	1.604774
4.674805	1.604926
4.675293	1.604862
4.675781	1.604739
4.676270	1.604846
4.676758	1.604800
4.677246	1.604923
4.677734	1.604951
4.678223	1.604991
4.678711	1.604870
4.679199	1.604738
4.679687	1.604685
4.680176	1.604733
4.680664	1.604871
4.681152	1.604901
4.681641	1.604895
4.682129	1.604632
4.682617	1.604667
4.683105	1.604935
4.683594	1.604966
4.684082	1.605007
4.684570	1.604644
4.685059	1.604821
4.685547	1.604783
4.686035	1.604758
4.686523	1.604896
4.687012	1.604625
4.687500	1.604578
4.687988	1.604595
4.688477	1.604508
4.688965	1.604388
4.689453	1.604567
4.689941	1.604477
4.690430	1.604601
4.690918	1.604624
4.691406	1.604526
4.691895	1.604521
4.692383	1.604319
4.692871	1.604661
4.693359	1.604556
4.693848	1.604303
4.694336	1.604314
4.694824	1.604405
4.695312	1.604934
4.695801	1.604825
4.696289	1.604530
4.696777	1.604522
4.697266	1.604547
4.697754	1.604500
4.698242	1.604624
4.698730	1.604705
4.699219	1.604681
4.699707	1.604371
4.700195	1.604450
4.700684	1.604320
4.701172	1.604278
4.701660	1.604440
4.702148	1.604374
4.702637	1.604200
4.703125	1.604311
4.703613	1.604346
4.704102	1.604201
4.704590	1.604065
4.705078	1.604375
4.705566	1.604532
4.706055	1.604423
4.706543	1.604562
4.707031	1.604450
4.707520	1.604537
4.708008	1.604032
4.708496	1.604214
4.708984	1.604572
4.709473	1.604475
4.709961	1.604356
4.710449	1.604359
4.710937	1.603958
4.711426	1.604361
4.711914	1.604397
4.712402	1.604361
4.712891	1.604279
4.713379	1.604583
4.713867	1.604287
4.714355	1.604407
4.714844	1.604252
4.715332	1.604330
4.715820	1.604541
4.716309	1.604562
4.716797	1.604411
4.717285	1.604114
4.717773	1.604373
4.718262	1.604531
4.718750	1.604510
4.719238	1.604392
4.719727	1.604325
4.720215	1.604316
4.720703	1.604199
4.721191	1.604052
4.721680	1.604595
4.722168	1.604696
4.722656	1.604278
4.723145	1.604234
4.723633	1.604077
4.724121	1.604364
4.724609	1.604287
4.725098	1.604192
4.725586	1.603993
4.726074	1.604380
4.726562	1.604058
4.727051	1.604234
4.727539	1.604390
4.728027	1.604160
4.728516	1.604374
4.729004	1.603820
4.729492	1.604031
4.729980	1.604087
4.730469	1.604234
4.730957	1.604149
4.731445	1.604276
4.731934	1.604319
4.732422	1.604000
4.732910	1.604383
4.733398	1.604091
4.733887	1.604132
4.734375	1.604169
4.734863	1.603947
4.735352	1.603830
4.735840	1.604128
4.736328	1.604224
4.736816	1.604165
4.737305	1.604171
4.737793	1.603906
4.738281	1.604099
4.738770	1.603929
4.739258	1.603742
4.739746	1.604322
4.740234	1.604348
4.740723	1.603861
4.741211	1.603862
4.741699	1.603955
4.742187	1.604012
4.742676	1.603990
4.743164	1.604015
4.743652	1.603905
4.744141	1.604014
4.744629	1.603963
4.745117	1.604146
4.745605	1.604433
4.746094	1.604149
4.746582	1.604038
4.747070	1.603947
4.747559	1.604052
4.748047	1.604364
4.748535	1.604318
4.749023	1.603953
4.749512	1.604067
4.750000	1.604287
4.750488	1.604375
4.750977	1.604536
4.751465	1.604314
4.751953	1.604126
4.752441	1.604439
4.752930	1.604479
4.753418	1.604375
4.753906	1.604547
4.754395	1.604219
4.754883	1.604379
4.755371	1.604539
4.755859	1.604433
4.756348	1.604414
4.756836	1.604565
4.757324	1.604552
4.757812	1.604462
4.758301	1.604664
4.758789	1.604633
4.759277	1.604589
4.759766	1.604476
4.760254	1.604393
4.760742	1.604815
4.761230	1.604969
4.761719	1.604563
4.762207	1.604606
4.762695	1.604836
4.763184	1.604857
4.763672	1.604733
4.764160	1.604717
4.764648	1.604552
4.765137	1.604694
4.765625	1.604916
4.766113	1.604808
4.766602	1.604828
4.767090	1.604642
4.767578	1.604937
4.768066	1.604675
4.768555	1.604617
4.769043	1.604654
4.769531	1.604795
4.770020	1.604988
4.770508	1.604919
4.770996	1.604971
4.771484	1.604868
4.771973	1.604879
4.772461	1.604667
4.772949	1.604860
4.773437	1.604826
4.773926	1.604951
4.774414	1.604935
4.774902	1.604843
4.775391	1.604728
4.775879	1.604793
4.776367	1.605218
4.776855	1.605082
4.777344	1.604814
4.777832	1.604824
4.778320	1.604806
4.778809	1.604995
4.779297	1.605031
4.779785	1.604908
4.780273	1.604735
4.780762	1.605150
4.781250	1.605039
4.781738	1.604786
4.782227	1.605035
4.782715	1.604943
4.783203	1.605018
4.783691	1.604954
4.784180	1.604779
4.784668	1.604822
4.785156	1.604902
4.785645	1.605028
4.786133	1.605090
4.786621	1.604896
4.787109	1.604963
4.787598	1.604913
4.788086	1.605010
4.788574	1.604974
4.789062	1.604878
4.789551	1.605020
4.790039	1.604917
4.790527	1.604788
4.791016	1.604747
4.791504	1.604868
4.791992	1.604873
4.792480	1.604845
4.792969	1.604816
4.793457	1.604623
4.793945	1.604755
4.794434	1.604865
4.794922	1.604950
4.795410	1.604885
4.795898	1.604667
4.796387	1.604947
4.796875	1.604771
4.797363	1.605064
4.797852	1.604791
4.798340	1.604545
4.798828	1.604578
4.799316	1.604569
4.799805	1.604546
4.800293	1.604531
4.800781	1.604829
4.801270	1.604873
4.801758	1.604806
4.802246	1.604835
4.802734	1.604783
4.803223	1.604919
4.803711	1.604536
4.804199	1.604624
4.804687	1.605046
4.805176	1.604832
4.805664	1.604872
4.806152	1.604780
4.806641	1.604713
4.807129	1.604897
4.807617	1.604972
4.808105	1.604753
4.808594	1.604675
4.809082	1.604993
4.809570	1.604750
4.810059	1.604814
4.810547	1.604780
4.811035	1.604806
4.811523	1.605047
4.812012	1.604675
4.812500	1.604851
4.812988	1.604804
4.813477	1.604950
4.813965	1.605015
4.814453	1.604854
4.814941	1.604883
4.815430	1.604828
4.815918	1.604829
4.816406	1.604536
4.816895	1.604802
4.817383	1.604995
4.817871	1.604899
4.818359	1.604778
4.818848	1.604810
4.819336	1.604565
4.819824	1.604955
4.820312	1.604946
4.820801	1.604906
4.821289	1.604650
4.821777	1.605179
4.822266	1.604916
4.822754	1.604987
4.823242	1.604869
4.823730	1.604849
4.824219	1.604750
4.824707	1.605071
4.825195	1.605052
4.825684	1.604811
4.826172	1.604972
4.826660	1.604825
4.827148	1.605026
4.827637	1.604944
4.828125	1.605016
4.828613	1.605029
4.829102	1.604824
4.829590	1.604901
4.830078	1.605090
4.830566	1.605110
4.831055	1.605034
4.831543	1.605189
4.832031	1.604996
4.832520	1.604983
4.833008	1.605269
4.833496	1.605060
4.833984	1.604921
4.834473	1.605230
4.834961	1.605218
4.835449	1.604969
4.835937	1.605204
4.836426	1.604991
4.836914	1.605029
4.837402	1.605305
4.837891	1.605236
4.838379	1.605208
4.838867	1.604976
4.839355	1.604842
4.839844	1.605160
4.840332	1.605125
4.840820	1.604882
4.841309	1.604887
4.841797	1.605165
4.842285	1.605142
4.842773	1.605082
4.843262	1.605002
4.843750	1.605265
4.844238	1.605088
4.844727	1.604940
4.845215	1.605067
4.845703	1.605597
4.846191	1.605165
4.846680	1.604963
4.847168	1.605198
4.847656	1.605256
4.848145	1.605271
4.848633	1.605224
4.849121	1.604941
4.849609	1.604935
4.850098	1.605267
4.850586	1.605066
4.851074	1.605223
4.851562	1.605142
4.852051	1.605361
4.852539	1.605172
4.853027	1.604889
4.853516	1.605127
4.854004	1.605239
4.854492	1.605092
4.854980	1.604943
4.855469	1.605519
4.855957	1.605262
4.856445	1.605117
4.856934	1.605015
4.857422	1.605027
4.857910	1.605195
4.858398	1.605012
4.858887	1.604966
4.859375	1.604840
4.859863	1.605085
4.860352	1.605287
4.860840	1.605305
4.861328	1.605262
4.861816	1.605206
4.862305	1.605199
4.862793	1.604966
4.863281	1.605073
4.863770	1.605421
4.864258	1.605348
4.864746	1.605076
4.865234	1.605223
4.865723	1.605232
4.866211	1.605375
4.866699	1.605460
4.867187	1.605311
4.867676	1.605209
4.868164	1.605113
4.868652	1.605095
4.869141	1.605409
4.869629	1.605320
4.870117	1.605015
4.870605	1.605171
4.871094	1.605323
4.871582	1.605220
4.872070	1.605354
4.872559	1.605322
4.873047	1.605477
4.873535	1.605193
4.874023	1.605288
4.874512	1.605118
4.875000	1.605217
4.875488	1.605488
4.875977	1.605416
4.876465	1.605418
4.876953	1.605536
4.877441	1.605334
4.877930	1.605403
4.878418	1.605248
4.878906	1.605526
4.879395	1.605162
4.879883	1.605364
4.880371	1.605366
4.880859	1.605513
4.881348	1.605659
4.881836	1.605488
4.882324	1.605612

